70BCSV 	
// AQ6370B OPTICAL SPECTRUM ANALYZER //                 
25
"CTRWL",1550.000000
"SPAN", 100.000000
"START WL",1500.000000
"STOP WL",1600.000000
"WLFREQ", 0
"REFL",-62.8
"LSCL", 5.0
"RESLN",0.100
"AVG",   1
"SMPLAUTO",      0
"SMPL",       5001
"SMPLINTVL",0.0200
"HIGH1"
"MEAS"
"LSUNT",0
"NMSKH","OFF"
"RESCOR",0
"RESPARM", 9050
"FREQPARM", 9050






"[TRACE DATA]"
1500.0000, -84.291
1500.0200, -94.607
1500.0400,-210.000
1500.0600, -85.261
1500.0800, -84.346
1500.1000,-100.374
1500.1200, -98.521
1500.1400, -84.165
1500.1600, -85.187
1500.1800, -88.561
1500.2000, -83.008
1500.2200,-210.000
1500.2400, -81.361
1500.2600,-210.000
1500.2800,-210.000
1500.3000,-210.000
1500.3200,-210.000
1500.3400,-210.000
1500.3600, -82.047
1500.3800,-210.000
1500.4000, -88.472
1500.4200,-210.000
1500.4400,-210.000
1500.4600, -83.401
1500.4800, -83.444
1500.5000, -83.388
1500.5200,-210.000
1500.5400, -95.806
1500.5600, -90.880
1500.5800, -88.405
1500.6000, -82.763
1500.6200,-210.000
1500.6400, -82.744
1500.6600, -85.669
1500.6800, -85.011
1500.7000,-210.000
1500.7200, -83.609
1500.7400, -83.683
1500.7600, -85.066
1500.7800, -86.061
1500.8000,-210.000
1500.8200, -84.998
1500.8400, -84.109
1500.8600, -94.102
1500.8800, -83.827
1500.9000,-210.000
1500.9200, -86.139
1500.9400,-210.000
1500.9600, -86.764
1500.9800, -89.886
1501.0000,-210.000
1501.0200, -91.605
1501.0400, -83.863
1501.0600, -84.338
1501.0800,-210.000
1501.1000,-210.000
1501.1200, -82.798
1501.1400, -88.380
1501.1600, -87.078
1501.1800, -97.800
1501.2000, -83.698
1501.2200,-210.000
1501.2400, -86.360
1501.2600, -89.988
1501.2800, -83.693
1501.3000, -84.796
1501.3200,-210.000
1501.3400, -82.529
1501.3600, -84.752
1501.3800, -87.023
1501.4000,-210.000
1501.4200,-210.000
1501.4400, -86.515
1501.4600, -86.176
1501.4800, -98.213
1501.5000, -83.985
1501.5200, -93.169
1501.5400,-210.000
1501.5600, -83.901
1501.5800, -85.692
1501.6000,-210.000
1501.6200, -86.852
1501.6400, -87.587
1501.6600,-210.000
1501.6800, -87.931
1501.7000,-210.000
1501.7200, -84.342
1501.7400, -86.523
1501.7600, -95.842
1501.7800, -91.628
1501.8000, -83.930
1501.8200,-210.000
1501.8400,-210.000
1501.8600, -81.146
1501.8800, -87.886
1501.9000,-210.000
1501.9200, -82.015
1501.9400,-210.000
1501.9600, -83.548
1501.9800, -85.824
1502.0000, -89.124
1502.0200, -89.845
1502.0400,-210.000
1502.0600,-210.000
1502.0800, -82.053
1502.1000,-210.000
1502.1200, -85.519
1502.1400, -84.407
1502.1600,-210.000
1502.1800, -86.079
1502.2000, -87.529
1502.2200, -85.662
1502.2400,-210.000
1502.2600, -81.713
1502.2800, -83.701
1502.3000, -83.109
1502.3200, -94.516
1502.3400, -94.245
1502.3600, -84.153
1502.3800, -88.228
1502.4000,-210.000
1502.4200,-210.000
1502.4400, -92.356
1502.4600, -85.931
1502.4800, -85.295
1502.5000, -86.955
1502.5200, -85.868
1502.5400,-210.000
1502.5600, -87.422
1502.5800, -84.762
1502.6000,-210.000
1502.6200, -91.451
1502.6400,-210.000
1502.6600, -85.531
1502.6800,-102.150
1502.7000, -83.765
1502.7200, -85.257
1502.7400,-210.000
1502.7600, -84.704
1502.7800, -84.978
1502.8000, -86.693
1502.8200,-210.000
1502.8400, -90.471
1502.8600, -85.592
1502.8800,-210.000
1502.9000,-210.000
1502.9200, -90.823
1502.9400, -83.474
1502.9600, -89.880
1502.9800,-210.000
1503.0000,-210.000
1503.0200, -82.303
1503.0400,-210.000
1503.0600, -93.012
1503.0800, -82.934
1503.1000, -92.019
1503.1200,-210.000
1503.1400, -85.389
1503.1600,-210.000
1503.1800, -84.253
1503.2000, -81.933
1503.2200,-210.000
1503.2400, -85.055
1503.2600,-210.000
1503.2800, -83.074
1503.3000, -92.741
1503.3200, -92.033
1503.3400, -88.582
1503.3600,-210.000
1503.3800, -89.965
1503.4000, -86.412
1503.4200,-210.000
1503.4400, -81.869
1503.4600, -85.985
1503.4800,-210.000
1503.5000, -82.833
1503.5200, -85.829
1503.5400,-210.000
1503.5600,-210.000
1503.5800,-210.000
1503.6000, -85.441
1503.6200, -91.349
1503.6400, -79.473
1503.6600,-210.000
1503.6800,-210.000
1503.7000, -90.454
1503.7200, -90.076
1503.7400, -86.759
1503.7600,-210.000
1503.7800, -86.516
1503.8000, -83.573
1503.8200, -91.756
1503.8400, -84.297
1503.8600,-210.000
1503.8800, -89.707
1503.9000, -85.527
1503.9200, -85.539
1503.9400, -82.448
1503.9600,-210.000
1503.9800, -83.974
1504.0000,-100.113
1504.0200, -89.312
1504.0400, -86.807
1504.0600, -82.419
1504.0800,-210.000
1504.1000,-210.000
1504.1200, -88.719
1504.1400, -85.356
1504.1600, -80.198
1504.1800,-210.000
1504.2000,-210.000
1504.2200, -86.364
1504.2400,-210.000
1504.2600,-210.000
1504.2800, -82.140
1504.3000, -82.490
1504.3200, -82.860
1504.3400,-210.000
1504.3600, -85.543
1504.3800, -93.790
1504.4000,-210.000
1504.4200, -85.081
1504.4400, -84.885
1504.4600, -89.048
1504.4800,-210.000
1504.5000, -86.801
1504.5200, -92.083
1504.5400,-210.000
1504.5600, -85.538
1504.5800, -85.133
1504.6000, -88.312
1504.6200, -84.054
1504.6400,-210.000
1504.6600, -91.067
1504.6800, -83.565
1504.7000, -87.810
1504.7200,-210.000
1504.7400, -84.142
1504.7600, -90.604
1504.7800, -82.657
1504.8000, -82.181
1504.8200, -86.054
1504.8400, -88.138
1504.8600,-210.000
1504.8800, -95.973
1504.9000, -81.339
1504.9200,-210.000
1504.9400, -83.969
1504.9600,-210.000
1504.9800, -89.617
1505.0000, -81.471
1505.0200,-210.000
1505.0400, -85.527
1505.0600, -86.281
1505.0800,-210.000
1505.1000, -83.956
1505.1200,-210.000
1505.1400, -91.579
1505.1600, -82.225
1505.1800, -87.007
1505.2000,-210.000
1505.2200, -85.591
1505.2400, -92.447
1505.2600, -83.439
1505.2800, -87.869
1505.3000,-210.000
1505.3200,-100.120
1505.3400, -96.976
1505.3600, -85.486
1505.3800, -86.741
1505.4000, -92.516
1505.4200,-210.000
1505.4400, -86.057
1505.4600, -92.878
1505.4800,-210.000
1505.5000, -89.916
1505.5200, -86.456
1505.5400, -86.551
1505.5600, -91.311
1505.5800, -87.438
1505.6000, -84.893
1505.6200, -84.555
1505.6400, -95.848
1505.6600, -87.326
1505.6800, -86.917
1505.7000,-210.000
1505.7200, -85.924
1505.7400,-210.000
1505.7600, -88.622
1505.7800, -92.959
1505.8000, -88.195
1505.8200, -89.594
1505.8400, -83.763
1505.8600,-210.000
1505.8800, -94.858
1505.9000,-210.000
1505.9200, -86.004
1505.9400, -87.222
1505.9600,-210.000
1505.9800,-210.000
1506.0000, -84.480
1506.0200, -86.303
1506.0400, -90.403
1506.0600,-105.979
1506.0800,-210.000
1506.1000,-210.000
1506.1200,-210.000
1506.1400, -86.064
1506.1600, -87.932
1506.1800,-210.000
1506.2000, -89.462
1506.2200, -87.791
1506.2400, -84.929
1506.2600, -87.313
1506.2800, -83.015
1506.3000, -89.071
1506.3200,-210.000
1506.3400, -85.394
1506.3600, -84.236
1506.3800, -94.253
1506.4000, -83.229
1506.4200, -87.254
1506.4400, -96.053
1506.4600,-210.000
1506.4800, -82.685
1506.5000, -90.133
1506.5200, -89.461
1506.5400, -84.669
1506.5600, -94.082
1506.5800, -86.841
1506.6000, -89.732
1506.6200,-210.000
1506.6400, -89.810
1506.6600, -83.701
1506.6800, -87.802
1506.7000, -86.073
1506.7200, -89.606
1506.7400,-210.000
1506.7600,-210.000
1506.7800, -85.455
1506.8000, -87.677
1506.8200, -83.512
1506.8400, -85.232
1506.8600, -89.229
1506.8800, -85.562
1506.9000, -91.269
1506.9200, -83.471
1506.9400, -90.779
1506.9600, -82.035
1506.9800,-210.000
1507.0000, -93.561
1507.0200, -81.675
1507.0400,-210.000
1507.0600,-210.000
1507.0800, -86.279
1507.1000,-210.000
1507.1200, -83.120
1507.1400, -85.695
1507.1600, -93.723
1507.1800,-210.000
1507.2000, -82.456
1507.2200, -86.728
1507.2400,-210.000
1507.2600, -85.900
1507.2800, -86.440
1507.3000, -87.208
1507.3200,-210.000
1507.3400, -94.410
1507.3600, -89.026
1507.3800, -83.896
1507.4000, -82.688
1507.4200, -87.653
1507.4400, -95.325
1507.4600,-103.470
1507.4800, -83.935
1507.5000, -95.922
1507.5200, -83.971
1507.5400, -90.181
1507.5600, -89.587
1507.5800,-210.000
1507.6000, -81.543
1507.6200, -96.904
1507.6400, -85.193
1507.6600,-210.000
1507.6800,-210.000
1507.7000, -86.715
1507.7200, -84.498
1507.7400,-210.000
1507.7600, -83.345
1507.7800, -85.092
1507.8000, -84.622
1507.8200, -82.674
1507.8400, -88.614
1507.8600, -84.505
1507.8800,-210.000
1507.9000, -85.043
1507.9200,-210.000
1507.9400, -85.196
1507.9600,-210.000
1507.9800,-210.000
1508.0000, -83.276
1508.0200, -90.393
1508.0400, -86.815
1508.0600,-210.000
1508.0800, -86.314
1508.1000, -95.593
1508.1200, -95.940
1508.1400,-210.000
1508.1600, -88.808
1508.1800,-210.000
1508.2000,-210.000
1508.2200, -86.025
1508.2400, -83.766
1508.2600, -85.221
1508.2800, -85.927
1508.3000, -91.088
1508.3200,-210.000
1508.3400,-210.000
1508.3600, -93.961
1508.3800, -88.859
1508.4000, -95.454
1508.4200, -81.508
1508.4400, -91.346
1508.4600, -91.793
1508.4800,-210.000
1508.5000, -84.815
1508.5200, -85.334
1508.5400, -85.893
1508.5600,-210.000
1508.5800, -84.644
1508.6000,-210.000
1508.6200, -86.565
1508.6400, -91.702
1508.6600, -89.741
1508.6800, -86.458
1508.7000,-115.552
1508.7200, -87.479
1508.7400, -81.395
1508.7600, -87.326
1508.7800, -90.404
1508.8000, -84.049
1508.8200, -90.798
1508.8400,-210.000
1508.8600, -83.492
1508.8800,-210.000
1508.9000, -90.328
1508.9200,-210.000
1508.9400, -84.857
1508.9600, -91.426
1508.9800, -82.729
1509.0000,-210.000
1509.0200, -86.700
1509.0400, -87.943
1509.0600,-210.000
1509.0800, -81.622
1509.1000,-210.000
1509.1200, -82.906
1509.1400, -86.580
1509.1600, -96.136
1509.1800, -85.318
1509.2000, -86.379
1509.2200, -84.136
1509.2400, -90.419
1509.2600,-210.000
1509.2800, -93.458
1509.3000, -84.587
1509.3200, -83.238
1509.3400,-210.000
1509.3600, -82.437
1509.3800,-210.000
1509.4000, -89.616
1509.4200, -84.652
1509.4400,-210.000
1509.4600, -83.455
1509.4800, -85.647
1509.5000, -91.747
1509.5200, -84.841
1509.5400, -83.733
1509.5600, -86.996
1509.5800, -85.641
1509.6000, -89.689
1509.6200, -99.950
1509.6400,-210.000
1509.6600, -86.473
1509.6800,-113.990
1509.7000,-210.000
1509.7200, -88.993
1509.7400,-210.000
1509.7600, -89.421
1509.7800, -86.771
1509.8000,-210.000
1509.8200, -83.588
1509.8400, -86.277
1509.8600, -88.347
1509.8800, -87.415
1509.9000,-210.000
1509.9200, -87.754
1509.9400, -91.102
1509.9600,-210.000
1509.9800,-102.045
1510.0000, -84.664
1510.0200,-210.000
1510.0400, -82.462
1510.0600,-210.000
1510.0800, -90.820
1510.1000, -85.363
1510.1200,-210.000
1510.1400, -85.006
1510.1600, -87.746
1510.1800,-210.000
1510.2000, -88.807
1510.2200, -94.802
1510.2400,-210.000
1510.2600, -86.232
1510.2800, -86.273
1510.3000, -86.107
1510.3200, -84.190
1510.3400,-210.000
1510.3600, -97.205
1510.3800, -91.745
1510.4000, -81.512
1510.4200, -89.872
1510.4400, -92.151
1510.4600,-210.000
1510.4800,-210.000
1510.5000, -82.861
1510.5200, -81.794
1510.5400, -87.182
1510.5600, -93.425
1510.5800, -84.658
1510.6000,-210.000
1510.6200, -83.451
1510.6400, -90.801
1510.6600, -96.446
1510.6800, -93.159
1510.7000, -83.153
1510.7200,-210.000
1510.7400, -92.177
1510.7600, -87.890
1510.7800,-210.000
1510.8000, -87.472
1510.8200,-210.000
1510.8400, -85.592
1510.8600,-210.000
1510.8800, -82.582
1510.9000,-210.000
1510.9200, -82.043
1510.9400, -90.412
1510.9600,-210.000
1510.9800, -87.458
1511.0000, -86.852
1511.0200, -91.175
1511.0400, -83.005
1511.0600, -85.761
1511.0800, -87.325
1511.1000, -87.950
1511.1200, -85.894
1511.1400, -88.861
1511.1600,-210.000
1511.1800, -84.177
1511.2000, -86.986
1511.2200,-210.000
1511.2400, -84.019
1511.2600,-210.000
1511.2800, -87.787
1511.3000, -83.605
1511.3200, -82.221
1511.3400, -85.345
1511.3600,-210.000
1511.3800, -95.722
1511.4000, -83.648
1511.4200,-210.000
1511.4400, -88.118
1511.4600,-210.000
1511.4800, -98.891
1511.5000, -81.335
1511.5200, -92.435
1511.5400, -84.738
1511.5600,-100.661
1511.5800, -92.088
1511.6000, -90.771
1511.6200, -97.690
1511.6400,-210.000
1511.6600,-210.000
1511.6800, -84.700
1511.7000, -86.045
1511.7200, -85.973
1511.7400, -90.383
1511.7600, -87.117
1511.7800, -88.510
1511.8000, -85.538
1511.8200,-210.000
1511.8400, -85.688
1511.8600, -85.439
1511.8800, -83.938
1511.9000,-210.000
1511.9200, -82.181
1511.9400, -91.975
1511.9600, -86.757
1511.9800, -82.857
1512.0000, -91.154
1512.0200, -97.375
1512.0400,-210.000
1512.0600, -85.431
1512.0800,-210.000
1512.1000, -91.054
1512.1200, -92.762
1512.1400, -84.705
1512.1600, -85.750
1512.1800, -91.916
1512.2000,-102.257
1512.2200, -87.893
1512.2400, -88.230
1512.2600, -84.492
1512.2800, -96.896
1512.3000,-210.000
1512.3200, -91.014
1512.3400, -91.766
1512.3600, -85.350
1512.3800, -86.651
1512.4000, -92.056
1512.4200, -84.711
1512.4400, -85.354
1512.4600, -87.912
1512.4800,-210.000
1512.5000,-210.000
1512.5200, -83.946
1512.5400,-210.000
1512.5600, -81.169
1512.5800, -84.379
1512.6000, -96.554
1512.6200, -85.252
1512.6400, -90.790
1512.6600,-210.000
1512.6800, -82.160
1512.7000, -92.363
1512.7200, -84.626
1512.7400,-210.000
1512.7600, -83.692
1512.7800,-210.000
1512.8000, -81.420
1512.8200, -82.401
1512.8400,-210.000
1512.8600, -89.346
1512.8800, -97.073
1512.9000, -87.745
1512.9200, -89.622
1512.9400, -86.855
1512.9600,-210.000
1512.9800, -82.601
1513.0000,-210.000
1513.0200, -86.488
1513.0400, -83.301
1513.0600, -89.945
1513.0800, -85.796
1513.1000, -85.481
1513.1200, -87.614
1513.1400, -84.187
1513.1600, -93.234
1513.1800, -87.649
1513.2000, -87.982
1513.2200,-210.000
1513.2400,-210.000
1513.2600,-210.000
1513.2800, -93.093
1513.3000, -88.674
1513.3200, -92.429
1513.3400, -85.368
1513.3600,-210.000
1513.3800, -84.632
1513.4000, -85.988
1513.4200, -84.700
1513.4400, -83.580
1513.4600,-210.000
1513.4800,-210.000
1513.5000, -80.237
1513.5200,-210.000
1513.5400, -81.781
1513.5600,-210.000
1513.5800, -85.741
1513.6000, -85.200
1513.6200, -88.475
1513.6400, -95.593
1513.6600, -93.836
1513.6800,-210.000
1513.7000, -82.612
1513.7200,-101.932
1513.7400, -87.811
1513.7600, -87.024
1513.7800, -84.352
1513.8000, -85.691
1513.8200, -87.290
1513.8400, -99.028
1513.8600, -82.537
1513.8800,-210.000
1513.9000, -85.218
1513.9200,-210.000
1513.9400, -82.566
1513.9600, -82.953
1513.9800,-210.000
1514.0000, -88.684
1514.0200, -85.861
1514.0400,-210.000
1514.0600, -90.661
1514.0800, -90.378
1514.1000, -84.301
1514.1200, -84.536
1514.1400, -91.001
1514.1600, -85.834
1514.1800, -87.901
1514.2000, -84.646
1514.2200, -83.600
1514.2400, -85.779
1514.2600,-210.000
1514.2800, -96.597
1514.3000, -86.709
1514.3200, -89.653
1514.3400,-210.000
1514.3600, -84.640
1514.3800,-210.000
1514.4000, -80.593
1514.4200, -94.492
1514.4400, -89.123
1514.4600, -86.684
1514.4800,-210.000
1514.5000, -81.815
1514.5200, -86.683
1514.5400, -84.554
1514.5600, -85.233
1514.5800,-210.000
1514.6000, -86.634
1514.6200, -84.655
1514.6400, -84.980
1514.6600, -91.309
1514.6800, -95.525
1514.7000,-210.000
1514.7200, -84.630
1514.7400, -86.556
1514.7600,-104.067
1514.7800, -86.706
1514.8000, -85.588
1514.8200, -85.253
1514.8400, -95.291
1514.8600, -85.901
1514.8800,-210.000
1514.9000,-210.000
1514.9200, -84.106
1514.9400,-210.000
1514.9600, -87.912
1514.9800,-210.000
1515.0000, -82.693
1515.0200, -85.296
1515.0400, -83.496
1515.0600, -87.958
1515.0800, -84.615
1515.1000, -85.636
1515.1200,-210.000
1515.1400, -87.925
1515.1600, -89.012
1515.1800, -86.522
1515.2000,-210.000
1515.2200, -99.345
1515.2400, -84.954
1515.2600, -84.168
1515.2800, -86.858
1515.3000, -84.347
1515.3200,-210.000
1515.3400, -92.066
1515.3600, -83.733
1515.3800, -92.099
1515.4000,-210.000
1515.4200, -82.440
1515.4400,-210.000
1515.4600, -85.826
1515.4800, -86.530
1515.5000, -85.373
1515.5200,-210.000
1515.5400,-210.000
1515.5600, -82.318
1515.5800, -82.276
1515.6000, -94.752
1515.6200,-210.000
1515.6400, -81.345
1515.6600,-210.000
1515.6800, -88.534
1515.7000,-210.000
1515.7200, -86.336
1515.7400, -87.953
1515.7600, -88.953
1515.7800, -87.598
1515.8000, -82.092
1515.8200, -83.654
1515.8400,-210.000
1515.8600, -88.159
1515.8800, -84.824
1515.9000, -86.276
1515.9200, -84.609
1515.9400,-210.000
1515.9600, -88.413
1515.9800,-210.000
1516.0000, -84.104
1516.0200, -96.518
1516.0400, -84.108
1516.0600,-210.000
1516.0800, -83.488
1516.1000, -90.053
1516.1200,-104.279
1516.1400,-210.000
1516.1600, -92.922
1516.1800,-210.000
1516.2000, -83.283
1516.2200,-210.000
1516.2400, -88.762
1516.2600, -87.017
1516.2800, -83.210
1516.3000, -82.639
1516.3200,-210.000
1516.3400, -86.755
1516.3600, -86.686
1516.3800, -94.208
1516.4000, -86.587
1516.4200, -92.847
1516.4400,-210.000
1516.4600, -89.169
1516.4800, -87.114
1516.5000,-210.000
1516.5200,-210.000
1516.5400, -82.029
1516.5600,-210.000
1516.5800,-210.000
1516.6000, -82.772
1516.6200,-210.000
1516.6400,-210.000
1516.6600, -88.929
1516.6800, -96.777
1516.7000, -82.735
1516.7200,-210.000
1516.7400, -90.650
1516.7600, -84.505
1516.7800,-210.000
1516.8000, -85.486
1516.8200,-210.000
1516.8400, -81.619
1516.8600,-210.000
1516.8800,-210.000
1516.9000, -82.371
1516.9200, -85.346
1516.9400, -85.700
1516.9600, -84.039
1516.9800, -86.142
1517.0000,-210.000
1517.0200,-210.000
1517.0400,-210.000
1517.0600, -82.807
1517.0800, -86.372
1517.1000, -86.380
1517.1200,-210.000
1517.1400, -85.162
1517.1600, -83.273
1517.1800, -84.568
1517.2000, -86.557
1517.2200,-210.000
1517.2400, -83.872
1517.2600, -90.881
1517.2800, -81.947
1517.3000, -83.835
1517.3200,-210.000
1517.3400,-210.000
1517.3600, -82.717
1517.3800, -86.251
1517.4000,-210.000
1517.4200, -83.246
1517.4400,-210.000
1517.4600,-210.000
1517.4800, -92.417
1517.5000, -85.667
1517.5200, -92.702
1517.5400,-210.000
1517.5600, -84.740
1517.5800, -86.357
1517.6000, -90.900
1517.6200, -86.464
1517.6400, -84.034
1517.6600,-210.000
1517.6800, -86.975
1517.7000,-210.000
1517.7200, -90.820
1517.7400,-210.000
1517.7600, -84.611
1517.7800, -85.131
1517.8000,-210.000
1517.8200, -83.510
1517.8400, -85.558
1517.8600, -91.874
1517.8800, -88.434
1517.9000, -90.092
1517.9200, -88.800
1517.9400, -91.410
1517.9600, -94.841
1517.9800, -86.318
1518.0000, -84.965
1518.0200,-210.000
1518.0400,-210.000
1518.0600, -85.585
1518.0800,-210.000
1518.1000, -81.120
1518.1200,-210.000
1518.1400, -92.412
1518.1600, -89.735
1518.1800,-210.000
1518.2000, -82.153
1518.2200, -83.848
1518.2400, -85.602
1518.2600, -89.318
1518.2800, -84.885
1518.3000,-210.000
1518.3200, -83.412
1518.3400,-210.000
1518.3600,-210.000
1518.3800, -87.412
1518.4000, -81.280
1518.4200,-210.000
1518.4400,-210.000
1518.4600, -84.056
1518.4800, -84.528
1518.5000, -95.263
1518.5200,-210.000
1518.5400,-210.000
1518.5600, -81.997
1518.5800,-210.000
1518.6000, -81.236
1518.6200,-210.000
1518.6400, -84.128
1518.6600, -83.937
1518.6800, -91.051
1518.7000, -84.832
1518.7200, -85.692
1518.7400, -85.127
1518.7600,-210.000
1518.7800, -87.805
1518.8000,-210.000
1518.8200, -84.382
1518.8400,-210.000
1518.8600, -83.325
1518.8800,-210.000
1518.9000, -86.897
1518.9200, -86.301
1518.9400, -81.828
1518.9600, -93.572
1518.9800, -89.787
1519.0000, -89.634
1519.0200,-210.000
1519.0400, -82.431
1519.0600, -90.869
1519.0800, -83.820
1519.1000, -89.500
1519.1200,-210.000
1519.1400,-210.000
1519.1600, -89.642
1519.1800, -93.398
1519.2000, -85.681
1519.2200, -91.353
1519.2400, -88.643
1519.2600,-210.000
1519.2800, -90.420
1519.3000,-210.000
1519.3200,-210.000
1519.3400, -82.636
1519.3600,-210.000
1519.3800, -86.361
1519.4000, -88.520
1519.4200, -94.809
1519.4400, -91.239
1519.4600, -89.475
1519.4800,-210.000
1519.5000, -92.089
1519.5200, -85.816
1519.5400, -85.114
1519.5600, -85.820
1519.5800, -90.310
1519.6000, -89.193
1519.6200, -90.133
1519.6400, -84.884
1519.6600, -85.109
1519.6800,-210.000
1519.7000, -85.665
1519.7200, -86.429
1519.7400, -84.170
1519.7600, -87.381
1519.7800, -84.501
1519.8000,-210.000
1519.8200, -85.216
1519.8400,-210.000
1519.8600,-103.629
1519.8800, -86.166
1519.9000, -85.230
1519.9200,-210.000
1519.9400, -92.895
1519.9600, -84.192
1519.9800, -84.652
1520.0000, -85.739
1520.0200, -83.452
1520.0400, -87.634
1520.0600,-210.000
1520.0800,-210.000
1520.1000, -87.810
1520.1200, -94.077
1520.1400, -82.977
1520.1600, -92.402
1520.1800, -83.418
1520.2000, -86.208
1520.2200, -84.878
1520.2400,-100.478
1520.2600, -84.956
1520.2800, -92.514
1520.3000,-210.000
1520.3200, -84.070
1520.3400,-210.000
1520.3600, -85.508
1520.3800, -83.184
1520.4000,-210.000
1520.4200, -90.358
1520.4400, -87.061
1520.4600, -81.831
1520.4800,-210.000
1520.5000,-210.000
1520.5200,-210.000
1520.5400, -84.883
1520.5600, -83.590
1520.5800,-210.000
1520.6000, -84.320
1520.6200, -82.703
1520.6400,-210.000
1520.6600,-210.000
1520.6800, -85.723
1520.7000, -84.059
1520.7200,-210.000
1520.7400, -84.788
1520.7600,-210.000
1520.7800, -84.891
1520.8000, -86.574
1520.8200, -86.860
1520.8400, -88.535
1520.8600, -85.426
1520.8800,-210.000
1520.9000, -91.845
1520.9200, -86.219
1520.9400,-210.000
1520.9600, -81.722
1520.9800, -88.720
1521.0000, -90.796
1521.0200, -82.489
1521.0400,-210.000
1521.0600, -87.015
1521.0800,-210.000
1521.1000, -89.918
1521.1200, -81.328
1521.1400,-210.000
1521.1600, -84.232
1521.1800, -85.755
1521.2000, -86.332
1521.2200,-210.000
1521.2400, -91.695
1521.2600, -84.717
1521.2800,-210.000
1521.3000, -89.750
1521.3200,-210.000
1521.3400, -83.690
1521.3600,-210.000
1521.3800, -93.656
1521.4000, -90.977
1521.4200, -88.572
1521.4400, -84.111
1521.4600, -86.251
1521.4800,-210.000
1521.5000, -84.955
1521.5200, -87.317
1521.5400, -87.018
1521.5600, -83.110
1521.5800, -91.131
1521.6000, -85.861
1521.6200,-210.000
1521.6400,-210.000
1521.6600, -88.295
1521.6800, -81.361
1521.7000,-210.000
1521.7200, -84.994
1521.7400,-210.000
1521.7600, -88.281
1521.7800, -85.805
1521.8000, -85.689
1521.8200,-210.000
1521.8400, -83.504
1521.8600,-210.000
1521.8800, -84.668
1521.9000, -85.950
1521.9200, -83.703
1521.9400, -86.378
1521.9600,-210.000
1521.9800,-210.000
1522.0000, -91.171
1522.0200, -90.125
1522.0400, -89.961
1522.0600, -83.149
1522.0800, -86.221
1522.1000,-210.000
1522.1200, -81.011
1522.1400,-210.000
1522.1600, -92.900
1522.1800, -86.989
1522.2000, -86.330
1522.2200, -88.930
1522.2400,-210.000
1522.2600, -82.548
1522.2800, -87.878
1522.3000,-210.000
1522.3200, -82.312
1522.3400, -90.254
1522.3600, -86.977
1522.3800, -86.789
1522.4000, -88.751
1522.4200, -83.144
1522.4400,-210.000
1522.4600,-210.000
1522.4800, -86.073
1522.5000, -85.533
1522.5200,-210.000
1522.5400, -93.629
1522.5600, -85.252
1522.5800, -88.348
1522.6000,-210.000
1522.6200, -83.308
1522.6400, -86.708
1522.6600,-210.000
1522.6800, -86.646
1522.7000,-210.000
1522.7200,-210.000
1522.7400, -84.048
1522.7600, -90.715
1522.7800, -90.062
1522.8000, -87.583
1522.8200, -87.894
1522.8400,-210.000
1522.8600, -84.681
1522.8800,-210.000
1522.9000, -86.338
1522.9200,-210.000
1522.9400,-210.000
1522.9600, -82.754
1522.9800, -91.406
1523.0000, -92.693
1523.0200, -89.306
1523.0400, -87.480
1523.0600,-210.000
1523.0800, -85.409
1523.1000,-210.000
1523.1200, -88.352
1523.1400, -88.547
1523.1600,-210.000
1523.1800, -89.017
1523.2000,-210.000
1523.2200, -92.085
1523.2400, -85.557
1523.2600, -84.568
1523.2800, -82.307
1523.3000, -86.064
1523.3200, -84.962
1523.3400, -89.414
1523.3600, -93.680
1523.3800,-210.000
1523.4000, -85.284
1523.4200, -87.064
1523.4400,-210.000
1523.4600,-210.000
1523.4800, -83.422
1523.5000, -89.898
1523.5200, -90.222
1523.5400,-210.000
1523.5600, -86.676
1523.5800, -86.277
1523.6000,-210.000
1523.6200, -85.283
1523.6400,-210.000
1523.6600, -83.473
1523.6800, -86.702
1523.7000,-210.000
1523.7200, -89.699
1523.7400, -83.795
1523.7600, -93.882
1523.7800, -95.096
1523.8000,-210.000
1523.8200,-210.000
1523.8400, -85.441
1523.8600,-210.000
1523.8800, -91.961
1523.9000,-210.000
1523.9200, -82.461
1523.9400,-210.000
1523.9600, -83.927
1523.9800, -89.452
1524.0000,-210.000
1524.0200,-210.000
1524.0400, -84.077
1524.0600,-210.000
1524.0800, -83.288
1524.1000,-210.000
1524.1200,-210.000
1524.1400, -81.883
1524.1600,-210.000
1524.1800,-210.000
1524.2000, -88.355
1524.2200, -83.585
1524.2400,-210.000
1524.2600,-210.000
1524.2800, -89.630
1524.3000, -86.898
1524.3200, -82.872
1524.3400, -84.329
1524.3600,-210.000
1524.3800, -82.646
1524.4000,-107.086
1524.4200, -83.536
1524.4400,-210.000
1524.4600, -87.323
1524.4800, -85.478
1524.5000, -88.677
1524.5200,-210.000
1524.5400, -88.077
1524.5600, -88.790
1524.5800, -85.027
1524.6000,-210.000
1524.6200,-210.000
1524.6400,-210.000
1524.6600, -82.472
1524.6800, -99.949
1524.7000, -86.825
1524.7200, -83.051
1524.7400, -91.134
1524.7600, -83.797
1524.7800,-102.103
1524.8000, -90.069
1524.8200, -92.080
1524.8400,-210.000
1524.8600, -82.833
1524.8800,-104.683
1524.9000, -84.085
1524.9200, -87.559
1524.9400,-210.000
1524.9600, -94.166
1524.9800, -81.881
1525.0000,-210.000
1525.0200, -85.635
1525.0400,-210.000
1525.0600, -90.472
1525.0800, -84.667
1525.1000, -81.512
1525.1200,-210.000
1525.1400,-210.000
1525.1600, -86.655
1525.1800, -86.545
1525.2000,-210.000
1525.2200,-210.000
1525.2400, -83.780
1525.2600, -87.283
1525.2800,-210.000
1525.3000, -87.336
1525.3200, -81.980
1525.3400,-210.000
1525.3600, -88.393
1525.3800,-210.000
1525.4000, -86.242
1525.4200,-103.298
1525.4400, -89.456
1525.4600, -90.173
1525.4800, -83.557
1525.5000, -87.716
1525.5200, -98.334
1525.5400,-210.000
1525.5600, -84.168
1525.5800,-210.000
1525.6000, -82.287
1525.6200,-210.000
1525.6400, -84.373
1525.6600,-210.000
1525.6800, -85.879
1525.7000, -87.298
1525.7200, -96.504
1525.7400, -85.746
1525.7600, -91.889
1525.7800, -85.242
1525.8000, -84.370
1525.8200,-210.000
1525.8400, -84.865
1525.8600,-210.000
1525.8800, -85.379
1525.9000, -85.252
1525.9200, -83.615
1525.9400,-210.000
1525.9600, -83.544
1525.9800,-210.000
1526.0000, -87.112
1526.0200, -84.642
1526.0400, -87.833
1526.0600,-210.000
1526.0800, -84.214
1526.1000, -90.727
1526.1200, -83.604
1526.1400, -84.941
1526.1600,-210.000
1526.1800, -84.666
1526.2000, -88.490
1526.2200, -97.552
1526.2400, -82.133
1526.2600, -87.027
1526.2800, -94.441
1526.3000,-210.000
1526.3200,-210.000
1526.3400, -83.656
1526.3600, -87.319
1526.3800,-210.000
1526.4000, -82.408
1526.4200,-210.000
1526.4400, -84.593
1526.4600, -99.568
1526.4800, -88.353
1526.5000, -98.984
1526.5200, -86.315
1526.5400, -85.625
1526.5600, -83.845
1526.5800, -92.124
1526.6000,-210.000
1526.6200, -85.769
1526.6400,-210.000
1526.6600, -81.991
1526.6800,-210.000
1526.7000,-210.000
1526.7200,-210.000
1526.7400, -84.870
1526.7600,-210.000
1526.7800, -82.844
1526.8000, -88.344
1526.8200,-210.000
1526.8400, -84.838
1526.8600, -92.148
1526.8800, -90.854
1526.9000, -86.179
1526.9200, -83.260
1526.9400,-210.000
1526.9600, -84.932
1526.9800, -88.026
1527.0000, -86.258
1527.0200, -85.552
1527.0400, -85.618
1527.0600, -86.610
1527.0800,-210.000
1527.1000, -88.704
1527.1200, -85.536
1527.1400, -88.293
1527.1600, -92.753
1527.1800, -91.244
1527.2000, -84.484
1527.2200, -94.877
1527.2400, -83.968
1527.2600, -82.957
1527.2800,-210.000
1527.3000, -87.701
1527.3200,-210.000
1527.3400, -85.829
1527.3600, -84.225
1527.3800, -86.078
1527.4000,-210.000
1527.4200,-210.000
1527.4400, -84.317
1527.4600,-210.000
1527.4800, -89.824
1527.5000, -84.073
1527.5200, -83.192
1527.5400, -85.659
1527.5600,-210.000
1527.5800, -83.671
1527.6000, -94.458
1527.6200,-210.000
1527.6400, -83.095
1527.6600,-210.000
1527.6800, -89.894
1527.7000, -84.462
1527.7200,-210.000
1527.7400, -93.823
1527.7600, -89.025
1527.7800,-210.000
1527.8000, -85.630
1527.8200, -83.047
1527.8400,-210.000
1527.8600,-210.000
1527.8800, -86.235
1527.9000, -84.885
1527.9200, -88.506
1527.9400, -97.615
1527.9600, -85.005
1527.9800,-210.000
1528.0000, -86.597
1528.0200, -88.821
1528.0400, -85.624
1528.0600, -87.460
1528.0800, -89.385
1528.1000, -83.457
1528.1200,-210.000
1528.1400, -87.711
1528.1600, -85.696
1528.1800, -83.585
1528.2000, -95.409
1528.2200, -93.305
1528.2400, -85.279
1528.2600, -84.536
1528.2800, -85.708
1528.3000,-210.000
1528.3200, -95.258
1528.3400, -89.097
1528.3600, -83.866
1528.3800, -83.900
1528.4000, -91.512
1528.4200, -84.093
1528.4400, -83.880
1528.4600, -91.660
1528.4800,-210.000
1528.5000, -82.776
1528.5200,-210.000
1528.5400,-210.000
1528.5600, -89.806
1528.5800, -87.881
1528.6000, -86.894
1528.6200, -82.261
1528.6400, -89.545
1528.6600, -91.649
1528.6800,-210.000
1528.7000, -85.702
1528.7200, -87.491
1528.7400, -83.534
1528.7600, -89.589
1528.7800, -87.831
1528.8000, -83.866
1528.8200, -86.557
1528.8400,-210.000
1528.8600, -81.536
1528.8800, -84.888
1528.9000,-210.000
1528.9200, -83.996
1528.9400, -88.864
1528.9600, -85.010
1528.9800,-210.000
1529.0000,-210.000
1529.0200, -85.455
1529.0400,-210.000
1529.0600, -84.362
1529.0800,-210.000
1529.1000, -87.442
1529.1200, -82.659
1529.1400, -89.837
1529.1600, -90.115
1529.1800,-210.000
1529.2000, -80.513
1529.2200, -83.159
1529.2400, -90.538
1529.2600,-210.000
1529.2800, -87.193
1529.3000, -85.132
1529.3200, -85.825
1529.3400,-210.000
1529.3600, -83.158
1529.3800, -91.934
1529.4000,-210.000
1529.4200, -94.087
1529.4400, -85.745
1529.4600,-210.000
1529.4800, -92.620
1529.5000,-210.000
1529.5200, -82.159
1529.5400, -85.461
1529.5600, -90.020
1529.5800, -83.023
1529.6000,-210.000
1529.6200, -85.871
1529.6400, -84.503
1529.6600, -85.642
1529.6800,-210.000
1529.7000, -86.177
1529.7200, -91.832
1529.7400, -87.973
1529.7600, -83.965
1529.7800, -95.357
1529.8000, -98.329
1529.8200, -88.798
1529.8400, -85.941
1529.8600,-210.000
1529.8800, -83.471
1529.9000, -85.035
1529.9200,-210.000
1529.9400, -86.049
1529.9600, -90.487
1529.9800, -86.924
1530.0000,-210.000
1530.0200, -82.470
1530.0400, -92.821
1530.0600,-210.000
1530.0800, -88.569
1530.1000,-100.691
1530.1200,-210.000
1530.1400,-210.000
1530.1600,-210.000
1530.1800, -84.114
1530.2000, -86.226
1530.2200, -89.690
1530.2400, -88.324
1530.2600, -86.724
1530.2800,-210.000
1530.3000, -86.700
1530.3200, -90.623
1530.3400,-210.000
1530.3600, -86.133
1530.3800, -89.913
1530.4000, -90.025
1530.4200, -86.368
1530.4400, -83.535
1530.4600, -84.844
1530.4800, -86.714
1530.5000, -98.033
1530.5200, -89.954
1530.5400, -96.515
1530.5600,-210.000
1530.5800, -87.181
1530.6000,-210.000
1530.6200, -83.380
1530.6400, -86.827
1530.6600, -87.079
1530.6800,-210.000
1530.7000,-210.000
1530.7200, -84.383
1530.7400, -90.013
1530.7600, -84.901
1530.7800,-210.000
1530.8000, -85.761
1530.8200, -86.378
1530.8400, -82.389
1530.8600,-210.000
1530.8800, -83.022
1530.9000,-210.000
1530.9200, -86.123
1530.9400, -84.961
1530.9600, -91.142
1530.9800,-210.000
1531.0000, -91.650
1531.0200, -85.421
1531.0400, -85.068
1531.0600, -86.269
1531.0800, -83.463
1531.1000,-210.000
1531.1200, -86.494
1531.1400, -86.437
1531.1600, -82.047
1531.1800,-210.000
1531.2000, -83.482
1531.2200, -86.324
1531.2400, -83.529
1531.2600, -89.254
1531.2800,-210.000
1531.3000,-210.000
1531.3200,-210.000
1531.3400, -84.662
1531.3600, -90.605
1531.3800, -87.795
1531.4000, -89.309
1531.4200,-210.000
1531.4400, -90.363
1531.4600,-210.000
1531.4800,-210.000
1531.5000, -83.454
1531.5200,-210.000
1531.5400, -88.528
1531.5600, -84.541
1531.5800,-210.000
1531.6000,-210.000
1531.6200, -91.950
1531.6400, -84.440
1531.6600, -84.270
1531.6800, -97.050
1531.7000, -89.889
1531.7200,-210.000
1531.7400, -85.934
1531.7600, -92.136
1531.7800, -86.892
1531.8000,-210.000
1531.8200, -84.554
1531.8400, -95.089
1531.8600, -85.896
1531.8800, -88.493
1531.9000, -88.132
1531.9200, -84.221
1531.9400, -89.050
1531.9600, -81.371
1531.9800,-210.000
1532.0000, -82.659
1532.0200,-210.000
1532.0400, -86.763
1532.0600,-210.000
1532.0800,-210.000
1532.1000, -83.726
1532.1200, -83.511
1532.1400,-210.000
1532.1600, -91.274
1532.1800, -82.838
1532.2000, -83.820
1532.2200, -85.619
1532.2400, -83.821
1532.2600,-210.000
1532.2800, -85.347
1532.3000,-210.000
1532.3200, -90.204
1532.3400, -82.145
1532.3600,-210.000
1532.3800,-210.000
1532.4000, -87.116
1532.4200,-210.000
1532.4400, -87.292
1532.4600, -84.802
1532.4800, -90.997
1532.5000, -84.025
1532.5200, -94.789
1532.5400,-210.000
1532.5600, -85.415
1532.5800, -84.634
1532.6000, -92.415
1532.6200, -83.256
1532.6400,-210.000
1532.6600, -88.383
1532.6800,-210.000
1532.7000, -86.867
1532.7200, -88.672
1532.7400, -94.526
1532.7600,-210.000
1532.7800, -82.098
1532.8000,-210.000
1532.8200, -86.867
1532.8400, -89.302
1532.8600, -83.920
1532.8800,-210.000
1532.9000,-210.000
1532.9200, -89.219
1532.9400,-210.000
1532.9600, -83.769
1532.9800,-210.000
1533.0000, -87.301
1533.0200,-210.000
1533.0400, -84.059
1533.0600, -84.286
1533.0800, -89.578
1533.1000,-210.000
1533.1200, -82.340
1533.1400, -84.648
1533.1600,-210.000
1533.1800,-210.000
1533.2000, -84.550
1533.2200, -84.299
1533.2400,-210.000
1533.2600, -85.044
1533.2800, -87.286
1533.3000, -85.432
1533.3200,-210.000
1533.3400, -83.458
1533.3600, -85.544
1533.3800, -83.021
1533.4000, -85.852
1533.4200, -85.601
1533.4400,-210.000
1533.4600, -82.751
1533.4800,-114.671
1533.5000, -86.407
1533.5200,-210.000
1533.5400,-210.000
1533.5600, -81.329
1533.5800, -83.885
1533.6000,-210.000
1533.6200, -82.110
1533.6400, -94.569
1533.6600, -84.026
1533.6800, -87.997
1533.7000, -88.509
1533.7200,-210.000
1533.7400, -88.260
1533.7600, -86.445
1533.7800, -85.083
1533.8000,-210.000
1533.8200, -86.153
1533.8400, -82.891
1533.8600,-210.000
1533.8800, -84.219
1533.9000, -88.083
1533.9200,-210.000
1533.9400, -85.387
1533.9600, -91.775
1533.9800,-210.000
1534.0000, -88.294
1534.0200,-210.000
1534.0400, -86.459
1534.0600, -83.239
1534.0800, -83.797
1534.1000,-210.000
1534.1200,-210.000
1534.1400, -84.080
1534.1600, -86.230
1534.1800, -88.626
1534.2000,-210.000
1534.2200,-210.000
1534.2400, -83.695
1534.2600,-210.000
1534.2800, -90.709
1534.3000, -83.669
1534.3200,-210.000
1534.3400, -84.992
1534.3600, -85.589
1534.3800, -88.302
1534.4000,-210.000
1534.4200,-210.000
1534.4400,-101.237
1534.4600, -84.826
1534.4800,-210.000
1534.5000, -87.137
1534.5200,-210.000
1534.5400, -89.277
1534.5600,-210.000
1534.5800, -84.763
1534.6000, -86.252
1534.6200, -87.043
1534.6400, -87.142
1534.6600, -85.845
1534.6800, -92.374
1534.7000, -87.664
1534.7200, -91.376
1534.7400,-210.000
1534.7600, -83.207
1534.7800,-210.000
1534.8000, -89.522
1534.8200, -85.388
1534.8400, -87.558
1534.8600, -81.945
1534.8800,-210.000
1534.9000, -83.557
1534.9200, -84.696
1534.9400, -94.508
1534.9600, -88.194
1534.9800,-210.000
1535.0000, -82.050
1535.0200, -90.391
1535.0400, -82.845
1535.0600, -85.861
1535.0800,-210.000
1535.1000, -92.710
1535.1200, -85.513
1535.1400, -85.783
1535.1600,-210.000
1535.1800,-210.000
1535.2000,-210.000
1535.2200, -86.081
1535.2400, -89.809
1535.2600, -84.765
1535.2800,-210.000
1535.3000, -88.174
1535.3200,-210.000
1535.3400, -83.118
1535.3600, -85.655
1535.3800,-210.000
1535.4000, -88.667
1535.4200, -83.825
1535.4400,-210.000
1535.4600,-210.000
1535.4800, -83.327
1535.5000, -85.144
1535.5200, -85.444
1535.5400,-210.000
1535.5600, -81.189
1535.5800, -83.890
1535.6000, -90.024
1535.6200,-210.000
1535.6400,-210.000
1535.6600,-210.000
1535.6800, -85.405
1535.7000, -89.615
1535.7200, -84.141
1535.7400, -82.985
1535.7600,-210.000
1535.7800, -82.763
1535.8000,-210.000
1535.8200, -85.739
1535.8400, -94.939
1535.8600,-210.000
1535.8800, -84.367
1535.9000, -90.329
1535.9200, -86.402
1535.9400, -88.977
1535.9600, -89.261
1535.9800, -83.489
1536.0000, -94.485
1536.0200,-210.000
1536.0400, -83.064
1536.0600, -86.658
1536.0800, -83.543
1536.1000, -85.986
1536.1200, -84.285
1536.1400, -85.185
1536.1600, -86.256
1536.1800,-210.000
1536.2000, -86.614
1536.2200,-210.000
1536.2400, -85.091
1536.2600, -83.612
1536.2800, -91.790
1536.3000,-210.000
1536.3200, -86.682
1536.3400,-210.000
1536.3600, -84.157
1536.3800,-210.000
1536.4000, -80.365
1536.4200, -84.918
1536.4400, -98.871
1536.4600,-210.000
1536.4800, -82.678
1536.5000,-210.000
1536.5200, -83.627
1536.5400, -93.072
1536.5600, -86.739
1536.5800, -85.581
1536.6000, -85.069
1536.6200, -85.168
1536.6400,-210.000
1536.6600, -84.455
1536.6800,-119.902
1536.7000,-210.000
1536.7200, -85.678
1536.7400,-210.000
1536.7600,-210.000
1536.7800, -79.626
1536.8000, -90.942
1536.8200,-210.000
1536.8400,-210.000
1536.8600,-210.000
1536.8800, -92.147
1536.9000, -85.973
1536.9200, -89.570
1536.9400, -97.160
1536.9600, -88.503
1536.9800, -98.073
1537.0000, -86.282
1537.0200, -90.175
1537.0400, -89.410
1537.0600, -87.627
1537.0800, -87.649
1537.1000,-210.000
1537.1200, -86.012
1537.1400,-210.000
1537.1600, -80.629
1537.1800, -85.973
1537.2000, -89.967
1537.2200, -87.528
1537.2400, -88.848
1537.2600, -85.999
1537.2800, -90.982
1537.3000, -86.614
1537.3200,-210.000
1537.3400, -81.186
1537.3600, -87.143
1537.3800, -87.142
1537.4000,-210.000
1537.4200, -85.744
1537.4400,-210.000
1537.4600, -86.360
1537.4800, -81.165
1537.5000,-210.000
1537.5200,-210.000
1537.5400, -83.822
1537.5600, -89.955
1537.5800, -99.451
1537.6000, -81.001
1537.6200, -85.453
1537.6400,-210.000
1537.6600, -86.330
1537.6800, -82.251
1537.7000,-210.000
1537.7200,-210.000
1537.7400, -85.161
1537.7600, -85.862
1537.7800, -83.008
1537.8000,-210.000
1537.8200, -86.691
1537.8400,-210.000
1537.8600, -81.878
1537.8800, -93.520
1537.9000,-210.000
1537.9200, -82.903
1537.9400,-210.000
1537.9600,-210.000
1537.9800, -82.108
1538.0000, -85.631
1538.0200,-210.000
1538.0400, -84.935
1538.0600,-210.000
1538.0800, -81.790
1538.1000, -84.641
1538.1200,-210.000
1538.1400, -92.052
1538.1600, -84.485
1538.1800, -86.554
1538.2000,-210.000
1538.2200, -83.507
1538.2400, -85.471
1538.2600, -83.448
1538.2800,-210.000
1538.3000,-210.000
1538.3200, -82.091
1538.3400,-100.742
1538.3600,-100.442
1538.3800,-210.000
1538.4000,-210.000
1538.4200, -80.625
1538.4400,-210.000
1538.4600, -85.382
1538.4800, -92.496
1538.5000, -83.751
1538.5200, -86.594
1538.5400,-210.000
1538.5600, -83.663
1538.5800,-210.000
1538.6000, -85.778
1538.6200, -82.926
1538.6400, -89.886
1538.6600, -87.275
1538.6800, -98.074
1538.7000, -84.690
1538.7200,-104.547
1538.7400, -86.624
1538.7600,-210.000
1538.7800, -90.239
1538.8000, -83.771
1538.8200, -81.335
1538.8400, -93.115
1538.8600, -83.702
1538.8800,-210.000
1538.9000, -93.217
1538.9200, -82.673
1538.9400, -85.108
1538.9600, -88.738
1538.9800,-210.000
1539.0000, -83.062
1539.0200, -91.488
1539.0400,-210.000
1539.0600, -84.001
1539.0800,-210.000
1539.1000, -85.699
1539.1200,-210.000
1539.1400,-210.000
1539.1600, -87.687
1539.1800,-210.000
1539.2000, -87.964
1539.2200,-210.000
1539.2400, -87.897
1539.2600, -88.428
1539.2800, -83.351
1539.3000, -87.475
1539.3200, -86.947
1539.3400, -87.955
1539.3600, -85.044
1539.3800, -91.095
1539.4000, -86.679
1539.4200,-210.000
1539.4400, -82.863
1539.4600, -85.472
1539.4800,-210.000
1539.5000, -88.207
1539.5200, -86.602
1539.5400, -86.241
1539.5600, -86.723
1539.5800,-210.000
1539.6000, -89.569
1539.6200, -85.965
1539.6400, -85.921
1539.6600, -85.229
1539.6800, -86.756
1539.7000,-210.000
1539.7200, -90.987
1539.7400, -99.040
1539.7600,-210.000
1539.7800, -81.034
1539.8000, -85.011
1539.8200,-210.000
1539.8400,-210.000
1539.8600, -89.560
1539.8800, -86.675
1539.9000, -96.240
1539.9200, -93.088
1539.9400, -83.791
1539.9600,-210.000
1539.9800,-210.000
1540.0000, -99.703
1540.0200,-210.000
1540.0400,-210.000
1540.0600, -82.397
1540.0800,-100.373
1540.1000, -86.581
1540.1200, -91.480
1540.1400, -85.233
1540.1600, -87.968
1540.1800,-210.000
1540.2000, -87.888
1540.2200, -86.508
1540.2400, -85.013
1540.2600, -84.081
1540.2800, -86.306
1540.3000,-210.000
1540.3200, -81.992
1540.3400, -95.417
1540.3600, -91.589
1540.3800, -97.930
1540.4000, -89.219
1540.4200,-210.000
1540.4400,-210.000
1540.4600,-210.000
1540.4800, -83.580
1540.5000, -87.995
1540.5200, -84.692
1540.5400, -98.032
1540.5600, -84.268
1540.5800, -83.659
1540.6000, -89.604
1540.6200, -84.509
1540.6400,-210.000
1540.6600, -85.816
1540.6800,-210.000
1540.7000, -84.228
1540.7200,-210.000
1540.7400, -82.293
1540.7600,-210.000
1540.7800, -88.565
1540.8000, -82.287
1540.8200,-210.000
1540.8400, -86.521
1540.8600,-210.000
1540.8800, -90.450
1540.9000, -89.286
1540.9200, -89.462
1540.9400,-210.000
1540.9600, -87.202
1540.9800,-210.000
1541.0000, -84.757
1541.0200, -89.695
1541.0400, -85.691
1541.0600,-210.000
1541.0800,-210.000
1541.1000, -81.936
1541.1200, -91.196
1541.1400, -81.576
1541.1600,-210.000
1541.1800, -82.682
1541.2000, -86.795
1541.2200,-210.000
1541.2400, -81.912
1541.2600, -83.379
1541.2800, -84.712
1541.3000,-210.000
1541.3200, -82.043
1541.3400, -86.064
1541.3600,-210.000
1541.3800,-210.000
1541.4000, -81.854
1541.4200, -94.064
1541.4400, -89.071
1541.4600, -87.178
1541.4800, -87.498
1541.5000,-210.000
1541.5200, -85.113
1541.5400, -94.420
1541.5600, -87.547
1541.5800,-210.000
1541.6000, -81.014
1541.6200,-210.000
1541.6400, -84.623
1541.6600, -94.011
1541.6800, -82.984
1541.7000,-210.000
1541.7200, -92.009
1541.7400,-210.000
1541.7600, -89.099
1541.7800,-210.000
1541.8000, -87.782
1541.8200, -83.393
1541.8400, -84.164
1541.8600, -86.509
1541.8800, -82.506
1541.9000, -89.799
1541.9200, -93.066
1541.9400, -85.491
1541.9600, -85.954
1541.9800, -94.065
1542.0000, -88.275
1542.0200, -85.343
1542.0400,-210.000
1542.0600, -86.051
1542.0800, -86.647
1542.1000, -90.047
1542.1200,-210.000
1542.1400,-210.000
1542.1600,-210.000
1542.1800, -82.894
1542.2000, -82.501
1542.2200, -90.374
1542.2400, -90.245
1542.2600, -85.535
1542.2800,-210.000
1542.3000,-210.000
1542.3200, -89.957
1542.3400, -82.794
1542.3600, -85.965
1542.3800, -88.433
1542.4000,-210.000
1542.4200, -86.201
1542.4400, -88.494
1542.4600, -83.554
1542.4800,-210.000
1542.5000, -85.100
1542.5200, -85.624
1542.5400, -83.008
1542.5600,-210.000
1542.5800, -88.799
1542.6000, -89.322
1542.6200, -97.193
1542.6400, -88.067
1542.6600, -87.388
1542.6800, -85.374
1542.7000,-210.000
1542.7200,-106.382
1542.7400, -83.311
1542.7600, -88.033
1542.7800, -84.043
1542.8000, -92.835
1542.8200, -82.966
1542.8400,-210.000
1542.8600, -84.679
1542.8800, -83.232
1542.9000, -85.630
1542.9200,-102.322
1542.9400, -85.733
1542.9600, -94.309
1542.9800, -92.562
1543.0000,-210.000
1543.0200, -84.469
1543.0400, -88.972
1543.0600, -80.632
1543.0800, -84.959
1543.1000, -97.125
1543.1200, -86.729
1543.1400,-210.000
1543.1600,-210.000
1543.1800, -85.912
1543.2000, -81.525
1543.2200,-210.000
1543.2400, -84.747
1543.2600, -83.297
1543.2800, -81.830
1543.3000,-210.000
1543.3200, -87.046
1543.3400,-210.000
1543.3600, -90.114
1543.3800, -89.269
1543.4000,-210.000
1543.4200, -88.109
1543.4400, -83.111
1543.4600,-210.000
1543.4800, -95.031
1543.5000,-210.000
1543.5200, -85.253
1543.5400, -82.203
1543.5600,-210.000
1543.5800,-210.000
1543.6000, -89.164
1543.6200,-210.000
1543.6400, -89.435
1543.6600, -84.741
1543.6800, -90.023
1543.7000, -84.934
1543.7200,-210.000
1543.7400, -93.545
1543.7600,-210.000
1543.7800, -81.021
1543.8000, -85.421
1543.8200,-210.000
1543.8400, -85.162
1543.8600, -87.360
1543.8800, -86.288
1543.9000, -90.386
1543.9200, -83.733
1543.9400, -83.655
1543.9600,-210.000
1543.9800, -82.811
1544.0000,-102.623
1544.0200, -88.006
1544.0400, -84.440
1544.0600,-210.000
1544.0800, -86.933
1544.1000, -86.415
1544.1200,-210.000
1544.1400, -84.062
1544.1600,-210.000
1544.1800, -86.369
1544.2000, -84.003
1544.2200,-210.000
1544.2400, -87.860
1544.2600, -82.466
1544.2800,-210.000
1544.3000, -83.491
1544.3200, -87.179
1544.3400, -91.351
1544.3600,-210.000
1544.3800, -85.126
1544.4000, -90.097
1544.4200, -85.303
1544.4400,-210.000
1544.4600, -84.977
1544.4800, -87.490
1544.5000, -82.876
1544.5200, -87.012
1544.5400, -88.193
1544.5600, -85.711
1544.5800, -85.781
1544.6000, -87.254
1544.6200, -95.012
1544.6400, -84.085
1544.6600, -95.450
1544.6800,-210.000
1544.7000, -84.118
1544.7200, -87.320
1544.7400, -84.221
1544.7600, -88.667
1544.7800,-210.000
1544.8000, -87.768
1544.8200, -81.933
1544.8400, -87.817
1544.8600, -86.565
1544.8800, -92.861
1544.9000, -80.439
1544.9200,-210.000
1544.9400,-210.000
1544.9600, -84.105
1544.9800, -89.658
1545.0000, -85.273
1545.0200,-210.000
1545.0400, -83.498
1545.0600,-210.000
1545.0800, -84.739
1545.1000, -92.019
1545.1200, -87.759
1545.1400, -89.113
1545.1600,-210.000
1545.1800,-210.000
1545.2000,-210.000
1545.2200, -83.322
1545.2400,-210.000
1545.2600, -83.752
1545.2800, -85.213
1545.3000,-210.000
1545.3200,-210.000
1545.3400, -86.028
1545.3600,-210.000
1545.3800, -86.440
1545.4000, -95.589
1545.4200, -82.498
1545.4400,-210.000
1545.4600,-210.000
1545.4800, -80.753
1545.5000,-210.000
1545.5200, -82.611
1545.5400, -84.123
1545.5600, -85.805
1545.5800, -93.597
1545.6000, -82.431
1545.6200,-210.000
1545.6400, -85.918
1545.6600,-210.000
1545.6800, -80.908
1545.7000,-210.000
1545.7200, -86.735
1545.7400, -87.346
1545.7600, -86.458
1545.7800, -87.339
1545.8000, -99.026
1545.8200,-210.000
1545.8400, -87.847
1545.8600,-210.000
1545.8800,-210.000
1545.9000, -83.193
1545.9200, -84.597
1545.9400, -85.110
1545.9600, -92.952
1545.9800,-210.000
1546.0000, -86.007
1546.0200,-210.000
1546.0400, -91.789
1546.0600, -85.999
1546.0800,-210.000
1546.1000, -88.026
1546.1200, -88.520
1546.1400, -84.402
1546.1600, -86.067
1546.1800,-210.000
1546.2000,-210.000
1546.2200, -90.347
1546.2400, -86.604
1546.2600, -90.988
1546.2800, -86.657
1546.3000, -85.245
1546.3200, -88.885
1546.3400, -88.360
1546.3600, -88.272
1546.3800, -84.624
1546.4000, -83.979
1546.4200, -92.657
1546.4400, -83.953
1546.4600, -85.351
1546.4800,-210.000
1546.5000, -88.294
1546.5200, -84.443
1546.5400,-210.000
1546.5600, -92.259
1546.5800, -83.417
1546.6000, -86.981
1546.6200, -85.931
1546.6400, -98.059
1546.6600, -82.089
1546.6800,-210.000
1546.7000, -93.602
1546.7200,-210.000
1546.7400,-210.000
1546.7600, -92.744
1546.7800, -82.385
1546.8000,-210.000
1546.8200, -88.722
1546.8400, -92.029
1546.8600, -81.769
1546.8800, -92.482
1546.9000, -83.430
1546.9200, -86.551
1546.9400, -89.996
1546.9600, -85.271
1546.9800,-210.000
1547.0000,-210.000
1547.0200, -86.211
1547.0400, -85.471
1547.0600,-210.000
1547.0800,-210.000
1547.1000, -82.592
1547.1200,-210.000
1547.1400, -86.784
1547.1600, -83.072
1547.1800, -88.120
1547.2000, -84.379
1547.2200, -97.512
1547.2400,-210.000
1547.2600,-210.000
1547.2800, -82.137
1547.3000, -91.601
1547.3200, -87.581
1547.3400, -86.398
1547.3600,-210.000
1547.3800, -89.297
1547.4000, -80.701
1547.4200, -84.970
1547.4400, -83.331
1547.4600,-210.000
1547.4800, -87.150
1547.5000, -86.292
1547.5200,-210.000
1547.5400, -82.330
1547.5600, -92.434
1547.5800, -97.885
1547.6000, -88.340
1547.6200, -84.096
1547.6400, -84.396
1547.6600, -89.039
1547.6800, -88.185
1547.7000,-101.029
1547.7200,-210.000
1547.7400, -87.780
1547.7600,-210.000
1547.7800, -82.605
1547.8000, -85.094
1547.8200, -91.640
1547.8400,-210.000
1547.8600, -85.248
1547.8800,-104.152
1547.9000,-210.000
1547.9200, -87.587
1547.9400, -85.595
1547.9600, -92.469
1547.9800,-210.000
1548.0000, -83.820
1548.0200,-210.000
1548.0400, -83.008
1548.0600,-210.000
1548.0800, -87.828
1548.1000, -82.448
1548.1200,-210.000
1548.1400, -88.807
1548.1600, -83.059
1548.1800, -88.630
1548.2000,-210.000
1548.2200, -85.717
1548.2400, -91.183
1548.2600, -84.041
1548.2800, -98.846
1548.3000,-210.000
1548.3200, -96.051
1548.3400, -80.918
1548.3600, -84.580
1548.3800, -88.539
1548.4000,-210.000
1548.4200, -88.038
1548.4400, -85.750
1548.4600, -80.941
1548.4800, -91.290
1548.5000,-210.000
1548.5200,-210.000
1548.5400, -82.807
1548.5600, -89.436
1548.5800, -87.634
1548.6000,-210.000
1548.6200,-210.000
1548.6400, -83.364
1548.6600,-210.000
1548.6800, -82.406
1548.7000, -89.990
1548.7200,-210.000
1548.7400, -90.275
1548.7600, -82.880
1548.7800,-210.000
1548.8000, -83.353
1548.8200,-210.000
1548.8400, -85.830
1548.8600, -95.671
1548.8800, -91.353
1548.9000, -81.194
1548.9200, -87.134
1548.9400,-210.000
1548.9600, -89.214
1548.9800, -88.590
1549.0000, -82.201
1549.0200,-210.000
1549.0400, -86.664
1549.0600,-210.000
1549.0800, -83.751
1549.1000, -84.383
1549.1200, -94.407
1549.1400, -82.751
1549.1600,-210.000
1549.1800, -95.248
1549.2000,-210.000
1549.2200,-210.000
1549.2400, -85.821
1549.2600,-210.000
1549.2800, -83.397
1549.3000,-103.885
1549.3200, -83.155
1549.3400, -86.741
1549.3600, -92.654
1549.3800, -83.421
1549.4000, -90.298
1549.4200, -85.215
1549.4400, -88.168
1549.4600, -82.722
1549.4800,-210.000
1549.5000, -82.701
1549.5200,-210.000
1549.5400,-210.000
1549.5600, -82.363
1549.5800, -93.918
1549.6000,-210.000
1549.6200,-210.000
1549.6400, -83.284
1549.6600, -89.005
1549.6800, -83.256
1549.7000,-210.000
1549.7200, -86.270
1549.7400, -88.136
1549.7600, -82.482
1549.7800, -83.845
1549.8000, -85.553
1549.8200, -89.926
1549.8400, -90.585
1549.8600, -87.123
1549.8800, -96.133
1549.9000,-210.000
1549.9200, -91.583
1549.9400, -86.924
1549.9600, -80.887
1549.9800, -87.538
1550.0000,-210.000
1550.0200, -85.660
1550.0400, -84.368
1550.0600, -98.304
1550.0800, -84.338
1550.1000, -85.764
1550.1200,-210.000
1550.1400, -79.968
1550.1600, -86.568
1550.1800,-210.000
1550.2000, -87.082
1550.2200, -86.522
1550.2400,-210.000
1550.2600, -87.055
1550.2800, -83.998
1550.3000,-210.000
1550.3200, -84.964
1550.3400, -84.589
1550.3600,-210.000
1550.3800, -84.841
1550.4000, -91.391
1550.4200,-210.000
1550.4400, -84.904
1550.4600,-210.000
1550.4800, -84.624
1550.5000,-210.000
1550.5200, -84.297
1550.5400, -83.927
1550.5600, -83.352
1550.5800,-108.152
1550.6000, -85.923
1550.6200, -84.628
1550.6400, -85.413
1550.6600, -87.812
1550.6800, -82.113
1550.7000,-210.000
1550.7200, -83.449
1550.7400, -89.557
1550.7600, -85.276
1550.7800, -82.887
1550.8000,-210.000
1550.8200,-210.000
1550.8400, -81.000
1550.8600, -83.736
1550.8800,-210.000
1550.9000, -87.111
1550.9200, -86.858
1550.9400, -84.129
1550.9600, -95.430
1550.9800,-210.000
1551.0000, -80.453
1551.0200, -95.949
1551.0400, -86.379
1551.0600, -87.620
1551.0800, -88.786
1551.1000, -87.009
1551.1200, -89.282
1551.1400, -84.642
1551.1600, -88.070
1551.1800, -85.548
1551.2000, -84.931
1551.2200,-210.000
1551.2400, -88.707
1551.2600, -83.009
1551.2800,-210.000
1551.3000,-210.000
1551.3200, -82.352
1551.3400,-210.000
1551.3600, -82.904
1551.3800, -84.455
1551.4000, -87.883
1551.4200,-210.000
1551.4400, -87.855
1551.4600, -82.121
1551.4800, -93.139
1551.5000,-210.000
1551.5200, -96.676
1551.5400, -88.508
1551.5600, -87.341
1551.5800, -97.341
1551.6000,-210.000
1551.6200, -83.532
1551.6400, -81.125
1551.6600,-210.000
1551.6800,-210.000
1551.7000, -89.635
1551.7200,-210.000
1551.7400, -82.540
1551.7600, -82.905
1551.7800,-210.000
1551.8000, -84.146
1551.8200, -99.424
1551.8400, -83.791
1551.8600,-210.000
1551.8800, -91.293
1551.9000,-210.000
1551.9200, -85.362
1551.9400, -85.053
1551.9600, -90.247
1551.9800, -85.091
1552.0000, -90.640
1552.0200, -96.143
1552.0400, -86.911
1552.0600, -83.268
1552.0800,-210.000
1552.1000, -81.537
1552.1200,-210.000
1552.1400, -88.788
1552.1600,-210.000
1552.1800,-210.000
1552.2000, -81.079
1552.2200,-210.000
1552.2400, -82.235
1552.2600,-210.000
1552.2800, -89.858
1552.3000, -82.685
1552.3200,-210.000
1552.3400, -89.908
1552.3600, -85.716
1552.3800, -82.329
1552.4000,-210.000
1552.4200, -85.555
1552.4400,-210.000
1552.4600, -83.213
1552.4800, -85.066
1552.5000, -91.067
1552.5200, -81.511
1552.5400, -84.441
1552.5600, -87.754
1552.5800, -86.223
1552.6000, -86.509
1552.6200, -96.284
1552.6400, -87.253
1552.6600, -87.811
1552.6800,-210.000
1552.7000,-210.000
1552.7200, -88.979
1552.7400,-210.000
1552.7600, -82.420
1552.7800,-210.000
1552.8000, -88.337
1552.8200, -86.351
1552.8400, -88.335
1552.8600, -82.016
1552.8800,-210.000
1552.9000, -88.325
1552.9200,-210.000
1552.9400, -91.908
1552.9600, -92.605
1552.9800, -92.900
1553.0000, -90.749
1553.0200, -83.854
1553.0400,-210.000
1553.0600, -82.412
1553.0800, -81.440
1553.1000, -93.795
1553.1200,-210.000
1553.1400, -85.696
1553.1600, -87.177
1553.1800, -84.032
1553.2000, -84.264
1553.2200,-210.000
1553.2400, -88.236
1553.2600, -84.949
1553.2800,-210.000
1553.3000, -91.853
1553.3200, -83.589
1553.3400, -85.032
1553.3600,-210.000
1553.3800, -83.827
1553.4000,-210.000
1553.4200, -85.278
1553.4400, -91.777
1553.4600, -88.860
1553.4800, -84.751
1553.5000,-210.000
1553.5200, -86.283
1553.5400, -83.768
1553.5600, -90.458
1553.5800, -86.618
1553.6000, -84.811
1553.6200, -85.334
1553.6400, -86.432
1553.6600, -90.551
1553.6800, -89.721
1553.7000,-210.000
1553.7200,-210.000
1553.7400, -88.689
1553.7600, -85.464
1553.7800, -86.289
1553.8000, -88.674
1553.8200,-210.000
1553.8400, -81.637
1553.8600, -82.138
1553.8800, -85.935
1553.9000,-210.000
1553.9200,-210.000
1553.9400,-210.000
1553.9600,-210.000
1553.9800, -81.031
1554.0000,-210.000
1554.0200, -83.599
1554.0400, -92.940
1554.0600, -91.809
1554.0800, -85.937
1554.1000, -88.650
1554.1200,-210.000
1554.1400, -82.855
1554.1600,-210.000
1554.1800, -87.259
1554.2000, -85.798
1554.2200, -82.008
1554.2400,-210.000
1554.2600, -91.342
1554.2800,-210.000
1554.3000,-210.000
1554.3200, -82.506
1554.3400,-210.000
1554.3600, -82.747
1554.3800, -89.493
1554.4000,-210.000
1554.4200, -82.748
1554.4400, -81.032
1554.4600, -84.896
1554.4800, -97.311
1554.5000, -99.678
1554.5200, -84.609
1554.5400,-210.000
1554.5600, -83.664
1554.5800, -89.131
1554.6000, -84.653
1554.6200,-210.000
1554.6400,-210.000
1554.6600,-210.000
1554.6800, -90.739
1554.7000, -81.051
1554.7200,-210.000
1554.7400, -90.089
1554.7600, -86.225
1554.7800, -95.270
1554.8000,-210.000
1554.8200, -87.951
1554.8400, -85.595
1554.8600, -84.882
1554.8800, -88.510
1554.9000, -91.024
1554.9200, -84.922
1554.9400,-210.000
1554.9600,-210.000
1554.9800,-210.000
1555.0000, -80.728
1555.0200,-210.000
1555.0400, -80.200
1555.0600, -86.512
1555.0800, -93.236
1555.1000,-210.000
1555.1200, -82.521
1555.1400,-210.000
1555.1600, -83.858
1555.1800, -81.451
1555.2000,-210.000
1555.2200, -82.822
1555.2400,-210.000
1555.2600, -85.035
1555.2800, -86.602
1555.3000,-210.000
1555.3200, -82.823
1555.3400,-210.000
1555.3600,-210.000
1555.3800,-210.000
1555.4000, -84.987
1555.4200, -90.986
1555.4400, -89.633
1555.4600, -88.979
1555.4800, -85.672
1555.5000, -94.459
1555.5200, -88.625
1555.5400, -85.338
1555.5600, -85.796
1555.5800,-210.000
1555.6000,-210.000
1555.6200, -83.925
1555.6400, -81.902
1555.6600, -85.575
1555.6800, -84.742
1555.7000,-210.000
1555.7200, -80.969
1555.7400, -87.846
1555.7600, -83.454
1555.7800, -85.531
1555.8000, -84.803
1555.8200, -85.932
1555.8400,-210.000
1555.8600, -85.112
1555.8800,-210.000
1555.9000, -87.048
1555.9200, -89.150
1555.9400, -93.383
1555.9600,-210.000
1555.9800, -83.622
1556.0000,-210.000
1556.0200, -84.110
1556.0400, -84.597
1556.0600,-210.000
1556.0800, -87.130
1556.1000,-210.000
1556.1200, -87.571
1556.1400, -86.185
1556.1600, -80.746
1556.1800, -87.561
1556.2000,-210.000
1556.2200, -84.565
1556.2400,-210.000
1556.2600, -80.018
1556.2800, -85.229
1556.3000, -88.246
1556.3200,-210.000
1556.3400, -83.404
1556.3600,-210.000
1556.3800, -85.190
1556.4000, -82.780
1556.4200, -84.208
1556.4400,-210.000
1556.4600, -84.108
1556.4800,-210.000
1556.5000, -94.515
1556.5200,-210.000
1556.5400, -85.723
1556.5600, -91.484
1556.5800, -83.368
1556.6000, -89.402
1556.6200,-210.000
1556.6400,-210.000
1556.6600, -83.024
1556.6800,-210.000
1556.7000, -79.624
1556.7200,-210.000
1556.7400, -85.054
1556.7600,-210.000
1556.7800, -84.533
1556.8000, -83.115
1556.8200,-210.000
1556.8400, -82.588
1556.8600, -88.733
1556.8800,-210.000
1556.9000, -83.519
1556.9200,-210.000
1556.9400, -81.588
1556.9600,-210.000
1556.9800, -86.022
1557.0000, -87.493
1557.0200, -92.065
1557.0400,-210.000
1557.0600, -84.754
1557.0800, -87.596
1557.1000,-210.000
1557.1200, -84.427
1557.1400, -84.940
1557.1600, -88.539
1557.1800, -85.678
1557.2000,-210.000
1557.2200, -96.754
1557.2400,-210.000
1557.2600, -81.780
1557.2800,-210.000
1557.3000, -94.352
1557.3200, -84.731
1557.3400, -82.848
1557.3600, -87.560
1557.3800, -87.721
1557.4000, -87.892
1557.4200,-210.000
1557.4400, -82.512
1557.4600, -83.048
1557.4800,-210.000
1557.5000, -87.592
1557.5200, -89.509
1557.5400, -85.087
1557.5600, -90.432
1557.5800, -89.241
1557.6000,-210.000
1557.6200, -82.961
1557.6400,-210.000
1557.6600, -83.367
1557.6800,-210.000
1557.7000, -88.731
1557.7200, -84.350
1557.7400, -87.655
1557.7600,-210.000
1557.7800, -92.116
1557.8000,-210.000
1557.8200, -86.099
1557.8400, -80.591
1557.8600, -92.937
1557.8800, -87.028
1557.9000,-106.769
1557.9200, -88.102
1557.9400, -84.354
1557.9600, -92.845
1557.9800, -97.272
1558.0000,-210.000
1558.0200, -87.392
1558.0400, -85.164
1558.0600, -84.460
1558.0800,-210.000
1558.1000, -91.438
1558.1200,-210.000
1558.1400, -89.444
1558.1600, -82.559
1558.1800, -91.927
1558.2000, -91.765
1558.2200, -85.222
1558.2400, -91.201
1558.2600, -86.498
1558.2800, -95.601
1558.3000, -85.964
1558.3200, -83.514
1558.3400,-210.000
1558.3600, -90.048
1558.3800,-210.000
1558.4000, -83.050
1558.4200,-210.000
1558.4400, -91.856
1558.4600, -84.064
1558.4800, -88.493
1558.5000,-210.000
1558.5200, -86.232
1558.5400,-210.000
1558.5600, -85.962
1558.5800, -81.050
1558.6000,-210.000
1558.6200, -90.452
1558.6400, -84.752
1558.6600, -85.691
1558.6800, -90.063
1558.7000, -84.110
1558.7200, -80.852
1558.7400,-210.000
1558.7600,-210.000
1558.7800,-210.000
1558.8000, -82.348
1558.8200, -85.561
1558.8400, -86.247
1558.8600, -96.887
1558.8800, -91.180
1558.9000, -93.064
1558.9200, -82.050
1558.9400, -84.136
1558.9600, -83.688
1558.9800, -89.548
1559.0000, -83.731
1559.0200, -87.305
1559.0400,-210.000
1559.0600, -83.700
1559.0800, -86.021
1559.1000,-210.000
1559.1200, -87.039
1559.1400,-210.000
1559.1600, -82.633
1559.1800, -97.225
1559.2000,-210.000
1559.2200, -85.700
1559.2400, -84.912
1559.2600,-210.000
1559.2800, -85.127
1559.3000, -81.486
1559.3200,-210.000
1559.3400, -81.657
1559.3600,-210.000
1559.3800, -87.408
1559.4000,-210.000
1559.4200, -83.712
1559.4400, -83.028
1559.4600, -90.712
1559.4800,-210.000
1559.5000,-210.000
1559.5200, -82.652
1559.5400,-210.000
1559.5600, -93.344
1559.5800, -88.756
1559.6000, -85.815
1559.6200, -87.923
1559.6400, -83.776
1559.6600,-210.000
1559.6800, -82.442
1559.7000,-210.000
1559.7200, -85.126
1559.7400,-210.000
1559.7600, -80.059
1559.7800,-210.000
1559.8000, -85.469
1559.8200,-210.000
1559.8400, -84.244
1559.8600,-210.000
1559.8800, -83.754
1559.9000,-210.000
1559.9200, -86.904
1559.9400, -87.120
1559.9600, -89.740
1559.9800, -84.562
1560.0000, -84.191
1560.0200,-210.000
1560.0400, -90.002
1560.0600, -85.605
1560.0800,-210.000
1560.1000, -86.494
1560.1200, -81.204
1560.1400,-210.000
1560.1600,-210.000
1560.1800,-210.000
1560.2000, -82.525
1560.2200,-210.000
1560.2400, -82.808
1560.2600, -82.594
1560.2800,-210.000
1560.3000,-210.000
1560.3200, -80.799
1560.3400,-210.000
1560.3600,-210.000
1560.3800, -87.971
1560.4000, -86.394
1560.4200, -85.380
1560.4400,-210.000
1560.4600, -84.609
1560.4800, -89.064
1560.5000, -82.764
1560.5200, -82.513
1560.5400, -84.634
1560.5600,-210.000
1560.5800,-210.000
1560.6000, -83.443
1560.6200, -88.115
1560.6400,-210.000
1560.6600, -84.198
1560.6800, -83.852
1560.7000,-210.000
1560.7200, -83.036
1560.7400, -84.158
1560.7600,-210.000
1560.7800, -83.990
1560.8000,-210.000
1560.8200, -83.937
1560.8400,-210.000
1560.8600,-210.000
1560.8800,-210.000
1560.9000, -83.074
1560.9200, -82.512
1560.9400, -85.132
1560.9600,-210.000
1560.9800,-210.000
1561.0000, -85.864
1561.0200,-210.000
1561.0400, -86.891
1561.0600, -97.163
1561.0800,-210.000
1561.1000, -85.773
1561.1200, -90.230
1561.1400, -86.758
1561.1600, -84.875
1561.1800, -84.887
1561.2000,-210.000
1561.2200,-210.000
1561.2400, -84.191
1561.2600, -85.095
1561.2800, -92.707
1561.3000, -82.649
1561.3200, -84.866
1561.3400, -86.563
1561.3600, -92.884
1561.3800, -90.762
1561.4000, -90.249
1561.4200,-210.000
1561.4400,-210.000
1561.4600, -84.780
1561.4800,-210.000
1561.5000,-210.000
1561.5200, -79.555
1561.5400, -90.491
1561.5600,-210.000
1561.5800, -82.201
1561.6000, -85.930
1561.6200,-102.182
1561.6400, -81.191
1561.6600,-210.000
1561.6800, -87.957
1561.7000,-210.000
1561.7200,-210.000
1561.7400, -85.370
1561.7600, -93.628
1561.7800, -89.434
1561.8000, -83.216
1561.8200, -81.841
1561.8400,-210.000
1561.8600, -81.931
1561.8800, -91.614
1561.9000, -91.774
1561.9200,-210.000
1561.9400, -84.670
1561.9600, -87.708
1561.9800,-210.000
1562.0000, -82.954
1562.0200,-210.000
1562.0400, -90.901
1562.0600,-101.199
1562.0800, -82.535
1562.1000,-210.000
1562.1200, -86.286
1562.1400, -90.130
1562.1600, -89.025
1562.1800, -84.457
1562.2000, -92.909
1562.2200, -84.945
1562.2400, -83.520
1562.2600, -86.158
1562.2800,-210.000
1562.3000, -84.154
1562.3200, -83.411
1562.3400,-210.000
1562.3600, -87.158
1562.3800, -86.769
1562.4000,-210.000
1562.4200, -88.414
1562.4400, -81.754
1562.4600,-210.000
1562.4800, -91.497
1562.5000, -94.353
1562.5200, -81.078
1562.5400, -86.510
1562.5600,-210.000
1562.5800, -83.957
1562.6000,-210.000
1562.6200, -94.313
1562.6400, -84.656
1562.6600, -83.765
1562.6800, -84.317
1562.7000, -93.211
1562.7200,-210.000
1562.7400, -85.820
1562.7600, -85.666
1562.7800, -84.443
1562.8000,-210.000
1562.8200, -86.305
1562.8400, -96.640
1562.8600, -86.398
1562.8800,-210.000
1562.9000,-210.000
1562.9200, -86.744
1562.9400,-210.000
1562.9600, -88.968
1562.9800, -87.177
1563.0000, -82.256
1563.0200, -83.979
1563.0400,-210.000
1563.0600, -87.323
1563.0800, -89.014
1563.1000, -88.727
1563.1200,-210.000
1563.1400, -80.353
1563.1600, -84.662
1563.1800, -88.588
1563.2000, -81.567
1563.2200, -95.433
1563.2400,-210.000
1563.2600, -86.933
1563.2800, -82.823
1563.3000, -95.854
1563.3200,-210.000
1563.3400, -87.618
1563.3600, -80.476
1563.3800,-210.000
1563.4000, -92.911
1563.4200, -88.558
1563.4400, -85.575
1563.4600,-210.000
1563.4800, -83.429
1563.5000,-210.000
1563.5200, -83.842
1563.5400,-210.000
1563.5600, -90.407
1563.5800,-210.000
1563.6000, -94.695
1563.6200,-210.000
1563.6400, -82.248
1563.6600,-210.000
1563.6800, -83.999
1563.7000, -87.451
1563.7200,-210.000
1563.7400, -89.878
1563.7600, -82.242
1563.7800, -85.705
1563.8000, -94.973
1563.8200,-210.000
1563.8400, -88.315
1563.8600, -90.300
1563.8800,-210.000
1563.9000, -83.868
1563.9200, -87.268
1563.9400, -93.744
1563.9600, -85.275
1563.9800,-109.719
1564.0000,-210.000
1564.0200,-210.000
1564.0400,-210.000
1564.0600, -91.902
1564.0800, -87.626
1564.1000, -87.277
1564.1200,-210.000
1564.1400, -96.120
1564.1600, -91.774
1564.1800, -94.862
1564.2000,-210.000
1564.2200, -92.591
1564.2400, -83.999
1564.2600, -88.106
1564.2800,-210.000
1564.3000, -86.515
1564.3200, -90.319
1564.3400, -89.045
1564.3600,-210.000
1564.3800, -86.263
1564.4000, -82.272
1564.4200,-210.000
1564.4400, -89.066
1564.4600, -85.856
1564.4800, -87.210
1564.5000, -83.712
1564.5200, -89.506
1564.5400, -81.630
1564.5600, -91.526
1564.5800,-210.000
1564.6000,-210.000
1564.6200, -87.560
1564.6400, -86.531
1564.6600, -89.429
1564.6800,-210.000
1564.7000, -90.301
1564.7200, -84.633
1564.7400, -86.808
1564.7600,-210.000
1564.7800, -83.171
1564.8000,-210.000
1564.8200, -85.249
1564.8400, -81.575
1564.8600, -98.344
1564.8800, -87.397
1564.9000,-210.000
1564.9200, -82.650
1564.9400,-210.000
1564.9600, -80.914
1564.9800, -86.811
1565.0000, -82.532
1565.0200, -87.652
1565.0400,-210.000
1565.0600, -90.855
1565.0800, -84.285
1565.1000,-210.000
1565.1200, -82.025
1565.1400,-210.000
1565.1600, -88.001
1565.1800, -86.061
1565.2000, -81.911
1565.2200,-210.000
1565.2400,-210.000
1565.2600, -83.695
1565.2800, -81.828
1565.3000,-210.000
1565.3200, -82.980
1565.3400, -83.810
1565.3600, -86.468
1565.3800, -89.010
1565.4000, -83.583
1565.4200, -86.519
1565.4400, -87.473
1565.4600, -86.193
1565.4800, -89.973
1565.5000,-210.000
1565.5200, -87.401
1565.5400, -91.206
1565.5600,-210.000
1565.5800, -81.988
1565.6000, -87.459
1565.6200,-210.000
1565.6400, -89.183
1565.6600, -94.098
1565.6800,-210.000
1565.7000, -87.300
1565.7200, -84.739
1565.7400,-210.000
1565.7600, -85.200
1565.7800, -84.229
1565.8000,-210.000
1565.8200, -83.928
1565.8400, -86.794
1565.8600, -85.869
1565.8800, -86.882
1565.9000, -89.545
1565.9200, -85.568
1565.9400, -87.320
1565.9600, -84.997
1565.9800, -90.100
1566.0000,-210.000
1566.0200, -81.104
1566.0400, -86.272
1566.0600,-210.000
1566.0800, -87.661
1566.1000,-210.000
1566.1200,-100.828
1566.1400, -82.450
1566.1600, -88.322
1566.1800, -86.008
1566.2000,-210.000
1566.2200, -83.237
1566.2400, -81.551
1566.2600,-210.000
1566.2800, -80.503
1566.3000, -86.162
1566.3200, -90.986
1566.3400,-210.000
1566.3600, -91.334
1566.3800, -88.991
1566.4000, -87.116
1566.4200, -84.929
1566.4400,-210.000
1566.4600,-210.000
1566.4800, -82.665
1566.5000, -88.925
1566.5200,-210.000
1566.5400, -85.779
1566.5600, -82.806
1566.5800, -86.654
1566.6000, -96.438
1566.6200, -82.943
1566.6400,-210.000
1566.6600,-210.000
1566.6800,-210.000
1566.7000, -82.701
1566.7200, -92.810
1566.7400, -91.178
1566.7600, -83.643
1566.7800, -92.369
1566.8000,-210.000
1566.8200,-210.000
1566.8400,-210.000
1566.8600, -82.453
1566.8800,-210.000
1566.9000,-210.000
1566.9200, -79.640
1566.9400, -91.280
1566.9600, -86.396
1566.9800,-210.000
1567.0000, -83.161
1567.0200, -83.557
1567.0400,-210.000
1567.0600, -85.223
1567.0800, -87.132
1567.1000,-210.000
1567.1200,-210.000
1567.1400,-210.000
1567.1600, -85.912
1567.1800,-210.000
1567.2000, -87.140
1567.2200,-210.000
1567.2400, -83.004
1567.2600,-210.000
1567.2800,-210.000
1567.3000,-210.000
1567.3200, -82.926
1567.3400, -84.709
1567.3600, -86.763
1567.3800, -86.809
1567.4000,-210.000
1567.4200, -80.240
1567.4400, -86.523
1567.4600, -83.066
1567.4800,-210.000
1567.5000, -84.107
1567.5200, -88.567
1567.5400, -84.387
1567.5600,-210.000
1567.5800, -80.766
1567.6000,-210.000
1567.6200, -90.680
1567.6400, -95.932
1567.6600, -85.194
1567.6800, -87.000
1567.7000,-210.000
1567.7200,-210.000
1567.7400, -84.733
1567.7600, -84.822
1567.7800, -93.598
1567.8000, -89.251
1567.8200, -90.867
1567.8400,-210.000
1567.8600,-210.000
1567.8800, -85.117
1567.9000, -86.440
1567.9200, -99.387
1567.9400, -89.339
1567.9600, -84.151
1567.9800,-210.000
1568.0000,-210.000
1568.0200, -80.778
1568.0400, -91.791
1568.0600, -87.766
1568.0800,-210.000
1568.1000,-210.000
1568.1200, -91.665
1568.1400, -87.231
1568.1600, -81.058
1568.1800,-210.000
1568.2000,-210.000
1568.2200, -91.577
1568.2400, -97.642
1568.2600,-210.000
1568.2800, -79.733
1568.3000,-210.000
1568.3200, -82.566
1568.3400, -85.877
1568.3600,-210.000
1568.3800, -90.190
1568.4000, -84.083
1568.4200,-210.000
1568.4400,-210.000
1568.4600, -81.706
1568.4800, -84.738
1568.5000,-210.000
1568.5200, -84.295
1568.5400,-210.000
1568.5600, -83.648
1568.5800, -85.239
1568.6000,-210.000
1568.6200,-210.000
1568.6400, -81.074
1568.6600, -94.074
1568.6800, -85.719
1568.7000, -85.355
1568.7200, -93.756
1568.7400, -83.722
1568.7600, -90.811
1568.7800, -88.984
1568.8000, -85.496
1568.8200, -92.017
1568.8400, -85.487
1568.8600, -85.692
1568.8800, -82.788
1568.9000,-210.000
1568.9200, -82.131
1568.9400, -92.807
1568.9600, -82.429
1568.9800, -82.905
1569.0000, -91.767
1569.0200,-210.000
1569.0400,-210.000
1569.0600, -86.964
1569.0800, -81.854
1569.1000, -91.131
1569.1200, -84.376
1569.1400,-210.000
1569.1600,-210.000
1569.1800, -96.755
1569.2000, -82.648
1569.2200, -96.482
1569.2400, -86.520
1569.2600, -87.810
1569.2800, -84.910
1569.3000,-109.825
1569.3200, -84.522
1569.3400,-210.000
1569.3600, -83.617
1569.3800, -83.879
1569.4000, -91.632
1569.4200, -95.364
1569.4400, -85.779
1569.4600, -92.093
1569.4800, -81.651
1569.5000,-210.000
1569.5200, -86.867
1569.5400,-210.000
1569.5600,-210.000
1569.5800, -86.137
1569.6000,-210.000
1569.6200, -93.593
1569.6400, -82.762
1569.6600, -89.411
1569.6800,-210.000
1569.7000,-210.000
1569.7200, -85.417
1569.7400, -99.609
1569.7600, -83.806
1569.7800, -88.927
1569.8000,-210.000
1569.8200, -84.047
1569.8400,-210.000
1569.8600, -98.327
1569.8800,-210.000
1569.9000, -81.385
1569.9200,-210.000
1569.9400, -96.087
1569.9600, -85.008
1569.9800, -86.404
1570.0000,-210.000
1570.0200,-210.000
1570.0400, -85.342
1570.0600, -81.175
1570.0800,-210.000
1570.1000, -82.983
1570.1200, -86.082
1570.1400, -85.219
1570.1600,-210.000
1570.1800, -85.965
1570.2000, -81.343
1570.2200, -89.274
1570.2400, -89.226
1570.2600, -85.431
1570.2800, -86.487
1570.3000, -84.252
1570.3200, -89.333
1570.3400,-210.000
1570.3600, -85.831
1570.3800, -89.430
1570.4000, -98.073
1570.4200, -82.652
1570.4400, -85.431
1570.4600, -82.614
1570.4800, -89.505
1570.5000, -85.502
1570.5200,-210.000
1570.5400, -81.820
1570.5600,-210.000
1570.5800, -80.757
1570.6000, -83.489
1570.6200,-210.000
1570.6400, -88.544
1570.6600,-210.000
1570.6800, -84.743
1570.7000, -85.339
1570.7200, -86.177
1570.7400, -86.972
1570.7600, -85.094
1570.7800,-210.000
1570.8000, -81.427
1570.8200, -91.594
1570.8400, -81.394
1570.8600,-105.077
1570.8800, -85.041
1570.9000, -84.246
1570.9200, -92.829
1570.9400, -89.773
1570.9600, -94.519
1570.9800, -87.486
1571.0000, -83.001
1571.0200,-210.000
1571.0400, -96.807
1571.0600, -90.428
1571.0800, -86.540
1571.1000, -86.010
1571.1200, -91.407
1571.1400, -82.667
1571.1600, -91.796
1571.1800, -87.018
1571.2000,-102.379
1571.2200, -83.979
1571.2400, -84.265
1571.2600, -88.762
1571.2800, -86.261
1571.3000,-210.000
1571.3200, -85.609
1571.3400, -84.776
1571.3600,-210.000
1571.3800, -84.584
1571.4000, -82.847
1571.4200,-210.000
1571.4400, -84.382
1571.4600, -88.699
1571.4800, -98.106
1571.5000, -89.438
1571.5200,-103.069
1571.5400, -85.241
1571.5600,-210.000
1571.5800,-210.000
1571.6000, -82.464
1571.6200, -86.066
1571.6400, -85.375
1571.6600, -86.971
1571.6800, -82.340
1571.7000, -90.840
1571.7200,-110.415
1571.7400, -83.382
1571.7600, -83.437
1571.7800,-210.000
1571.8000, -94.366
1571.8200, -88.290
1571.8400, -83.449
1571.8600,-210.000
1571.8800, -85.153
1571.9000, -85.138
1571.9200,-210.000
1571.9400, -88.892
1571.9600, -86.390
1571.9800, -87.752
1572.0000, -82.607
1572.0200,-210.000
1572.0400, -94.292
1572.0600, -84.178
1572.0800, -92.464
1572.1000, -95.567
1572.1200, -88.349
1572.1400, -87.052
1572.1600, -83.463
1572.1800, -94.730
1572.2000,-210.000
1572.2200,-210.000
1572.2400, -84.612
1572.2600,-210.000
1572.2800, -83.738
1572.3000, -84.900
1572.3200,-210.000
1572.3400, -90.640
1572.3600,-210.000
1572.3800, -87.057
1572.4000, -81.882
1572.4200, -86.326
1572.4400,-210.000
1572.4600, -85.251
1572.4800,-210.000
1572.5000,-210.000
1572.5200, -85.681
1572.5400, -84.039
1572.5600, -99.233
1572.5800, -86.386
1572.6000,-210.000
1572.6200,-210.000
1572.6400, -83.769
1572.6600, -91.438
1572.6800,-210.000
1572.7000, -93.786
1572.7200, -85.959
1572.7400, -87.986
1572.7600, -82.977
1572.7800, -89.918
1572.8000,-210.000
1572.8200, -84.448
1572.8400,-210.000
1572.8600, -83.509
1572.8800, -84.975
1572.9000, -97.054
1572.9200,-210.000
1572.9400, -82.193
1572.9600, -82.890
1572.9800, -91.356
1573.0000, -82.744
1573.0200, -87.962
1573.0400,-210.000
1573.0600, -91.621
1573.0800,-210.000
1573.1000, -83.454
1573.1200,-210.000
1573.1400, -83.963
1573.1600, -90.024
1573.1800, -84.272
1573.2000,-210.000
1573.2200, -81.275
1573.2400, -84.074
1573.2600, -84.970
1573.2800,-210.000
1573.3000, -84.340
1573.3200, -89.964
1573.3400, -85.281
1573.3600,-210.000
1573.3800, -87.540
1573.4000, -91.905
1573.4200, -83.438
1573.4400, -86.789
1573.4600, -85.263
1573.4800,-210.000
1573.5000, -87.225
1573.5200, -86.948
1573.5400, -84.561
1573.5600, -85.075
1573.5800, -90.575
1573.6000,-210.000
1573.6200, -87.462
1573.6400, -86.374
1573.6600,-210.000
1573.6800, -81.614
1573.7000,-210.000
1573.7200, -83.268
1573.7400, -83.585
1573.7600, -85.097
1573.7800, -82.464
1573.8000, -88.909
1573.8200, -81.206
1573.8400,-210.000
1573.8600, -83.932
1573.8800,-210.000
1573.9000, -95.261
1573.9200, -85.445
1573.9400, -84.780
1573.9600, -80.342
1573.9800, -87.725
1574.0000, -86.618
1574.0200, -87.989
1574.0400,-210.000
1574.0600, -81.435
1574.0800, -90.369
1574.1000,-210.000
1574.1200,-210.000
1574.1400,-210.000
1574.1600, -95.910
1574.1800, -86.998
1574.2000,-210.000
1574.2200, -81.603
1574.2400, -85.860
1574.2600, -85.025
1574.2800, -80.698
1574.3000, -86.160
1574.3200,-210.000
1574.3400,-210.000
1574.3600, -80.820
1574.3800,-210.000
1574.4000, -85.115
1574.4200,-210.000
1574.4400, -94.138
1574.4600, -81.768
1574.4800,-210.000
1574.5000, -90.441
1574.5200,-210.000
1574.5400, -81.304
1574.5600, -82.863
1574.5800, -89.123
1574.6000, -84.358
1574.6200,-210.000
1574.6400, -84.094
1574.6600, -92.301
1574.6800, -83.698
1574.7000, -87.477
1574.7200, -85.291
1574.7400, -85.940
1574.7600, -85.501
1574.7800,-210.000
1574.8000,-210.000
1574.8200, -88.736
1574.8400, -80.915
1574.8600,-210.000
1574.8800, -87.266
1574.9000, -85.620
1574.9200, -83.447
1574.9400, -94.067
1574.9600, -82.196
1574.9800, -83.914
1575.0000,-210.000
1575.0200, -85.802
1575.0400,-210.000
1575.0600, -88.635
1575.0800, -85.453
1575.1000, -85.147
1575.1200,-210.000
1575.1400,-210.000
1575.1600, -84.787
1575.1800, -83.283
1575.2000,-210.000
1575.2200, -88.746
1575.2400, -85.935
1575.2600,-210.000
1575.2800, -82.333
1575.3000, -84.455
1575.3200, -83.656
1575.3400,-210.000
1575.3600, -86.916
1575.3800, -94.041
1575.4000,-210.000
1575.4200,-210.000
1575.4400, -85.293
1575.4600,-210.000
1575.4800, -87.260
1575.5000, -96.716
1575.5200, -82.341
1575.5400,-210.000
1575.5600, -89.271
1575.5800, -83.118
1575.6000, -81.350
1575.6200,-210.000
1575.6400,-210.000
1575.6600,-210.000
1575.6800, -81.694
1575.7000,-210.000
1575.7200, -82.033
1575.7400, -82.041
1575.7600,-210.000
1575.7800,-210.000
1575.8000,-210.000
1575.8200, -86.182
1575.8400,-210.000
1575.8600, -83.294
1575.8800, -85.670
1575.9000,-210.000
1575.9200, -83.921
1575.9400, -92.727
1575.9600, -82.197
1575.9800, -85.609
1576.0000, -83.686
1576.0200,-210.000
1576.0400, -91.335
1576.0600, -83.817
1576.0800, -83.357
1576.1000,-210.000
1576.1200, -82.402
1576.1400, -89.220
1576.1600, -83.759
1576.1800, -82.058
1576.2000,-210.000
1576.2200,-210.000
1576.2400,-210.000
1576.2600, -84.122
1576.2800,-210.000
1576.3000, -84.278
1576.3200, -88.124
1576.3400, -81.805
1576.3600,-210.000
1576.3800,-210.000
1576.4000, -82.521
1576.4200,-210.000
1576.4400, -84.418
1576.4600,-210.000
1576.4800, -80.570
1576.5000,-210.000
1576.5200, -84.321
1576.5400,-210.000
1576.5600, -85.333
1576.5800,-210.000
1576.6000, -82.834
1576.6200, -87.505
1576.6400,-210.000
1576.6600, -89.331
1576.6800, -82.016
1576.7000,-210.000
1576.7200, -82.546
1576.7400, -87.517
1576.7600, -86.516
1576.7800,-210.000
1576.8000, -90.629
1576.8200, -83.647
1576.8400, -83.066
1576.8600,-210.000
1576.8800, -83.711
1576.9000, -85.776
1576.9200,-210.000
1576.9400, -89.892
1576.9600, -86.742
1576.9800, -88.630
1577.0000, -88.009
1577.0200,-210.000
1577.0400,-210.000
1577.0600, -85.175
1577.0800, -86.334
1577.1000,-210.000
1577.1200, -84.437
1577.1400, -85.403
1577.1600, -88.610
1577.1800, -85.736
1577.2000,-210.000
1577.2200, -86.690
1577.2400, -86.868
1577.2600,-210.000
1577.2800, -82.095
1577.3000,-210.000
1577.3200, -81.396
1577.3400, -90.024
1577.3600, -94.518
1577.3800, -82.310
1577.4000, -93.310
1577.4200,-210.000
1577.4400, -87.342
1577.4600, -84.868
1577.4800,-210.000
1577.5000, -89.768
1577.5200, -83.479
1577.5400, -88.860
1577.5600,-210.000
1577.5800, -85.100
1577.6000, -90.698
1577.6200, -86.766
1577.6400,-210.000
1577.6600, -81.563
1577.6800, -89.157
1577.7000, -86.270
1577.7200, -83.784
1577.7400, -86.344
1577.7600,-210.000
1577.7800,-210.000
1577.8000, -87.286
1577.8200, -84.376
1577.8400, -85.807
1577.8600, -84.510
1577.8800, -83.948
1577.9000,-210.000
1577.9200, -81.138
1577.9400, -86.030
1577.9600,-210.000
1577.9800, -84.592
1578.0000, -86.883
1578.0200, -82.884
1578.0400,-210.000
1578.0600,-210.000
1578.0800, -85.028
1578.1000, -83.905
1578.1200, -86.055
1578.1400, -83.988
1578.1600,-210.000
1578.1800, -85.895
1578.2000,-210.000
1578.2200, -93.403
1578.2400,-105.359
1578.2600, -83.891
1578.2800,-210.000
1578.3000,-210.000
1578.3200, -81.724
1578.3400, -97.632
1578.3600, -89.823
1578.3800,-210.000
1578.4000, -81.262
1578.4200, -90.458
1578.4400, -84.694
1578.4600, -90.172
1578.4800,-210.000
1578.5000,-210.000
1578.5200, -82.207
1578.5400, -81.585
1578.5600, -88.083
1578.5800,-210.000
1578.6000, -87.373
1578.6200,-210.000
1578.6400, -83.494
1578.6600, -81.996
1578.6800, -92.425
1578.7000, -87.990
1578.7200, -92.667
1578.7400, -84.492
1578.7600, -85.551
1578.7800, -84.551
1578.8000,-210.000
1578.8200, -88.876
1578.8400, -82.098
1578.8600, -89.848
1578.8800, -83.910
1578.9000, -83.652
1578.9200,-210.000
1578.9400, -83.655
1578.9600, -87.971
1578.9800, -91.220
1579.0000,-210.000
1579.0200, -87.669
1579.0400, -87.602
1579.0600, -83.271
1579.0800, -95.555
1579.1000,-210.000
1579.1200, -83.509
1579.1400, -83.247
1579.1600,-210.000
1579.1800, -85.924
1579.2000,-210.000
1579.2200, -85.302
1579.2400, -83.374
1579.2600,-210.000
1579.2800, -83.357
1579.3000, -85.658
1579.3200, -81.834
1579.3400,-210.000
1579.3600, -84.552
1579.3800, -84.369
1579.4000, -88.374
1579.4200,-210.000
1579.4400, -85.364
1579.4600, -89.180
1579.4800, -86.487
1579.5000, -85.421
1579.5200, -83.339
1579.5400, -85.040
1579.5600,-210.000
1579.5800,-210.000
1579.6000, -81.728
1579.6200, -81.741
1579.6400, -88.483
1579.6600, -90.172
1579.6800, -84.849
1579.7000, -85.404
1579.7200, -82.472
1579.7400,-210.000
1579.7600, -86.211
1579.7800, -89.828
1579.8000,-210.000
1579.8200, -80.412
1579.8400,-210.000
1579.8600, -81.707
1579.8800, -81.939
1579.9000,-210.000
1579.9200, -82.843
1579.9400,-210.000
1579.9600,-210.000
1579.9800, -83.091
1580.0000,-210.000
1580.0200,-210.000
1580.0400, -87.178
1580.0600, -84.290
1580.0800, -89.782
1580.1000, -83.638
1580.1200, -84.324
1580.1400, -87.202
1580.1600, -86.797
1580.1800, -87.172
1580.2000,-210.000
1580.2200, -82.339
1580.2400,-210.000
1580.2600, -84.675
1580.2800,-210.000
1580.3000, -81.591
1580.3200, -90.220
1580.3400, -84.198
1580.3600, -88.496
1580.3800, -82.608
1580.4000, -95.115
1580.4200, -91.077
1580.4400, -84.626
1580.4600, -90.246
1580.4800, -87.317
1580.5000, -96.791
1580.5200,-210.000
1580.5400, -83.059
1580.5600, -85.203
1580.5800, -86.215
1580.6000,-210.000
1580.6200, -81.863
1580.6400, -81.951
1580.6600,-210.000
1580.6800, -82.039
1580.7000,-210.000
1580.7200, -84.435
1580.7400, -94.090
1580.7600, -94.167
1580.7800, -84.702
1580.8000, -85.992
1580.8200,-210.000
1580.8400, -97.160
1580.8600,-210.000
1580.8800, -83.154
1580.9000, -83.536
1580.9200,-210.000
1580.9400, -83.744
1580.9600, -84.254
1580.9800,-210.000
1581.0000,-210.000
1581.0200, -84.967
1581.0400, -86.898
1581.0600, -96.776
1581.0800, -88.046
1581.1000,-210.000
1581.1200, -82.084
1581.1400,-210.000
1581.1600, -87.073
1581.1800, -83.126
1581.2000,-210.000
1581.2200, -85.567
1581.2400,-210.000
1581.2600, -86.691
1581.2800,-210.000
1581.3000, -84.839
1581.3200,-210.000
1581.3400, -84.565
1581.3600, -92.549
1581.3800, -85.510
1581.4000, -81.796
1581.4200, -85.619
1581.4400, -92.491
1581.4600, -90.501
1581.4800, -83.850
1581.5000,-210.000
1581.5200,-210.000
1581.5400, -87.440
1581.5600,-210.000
1581.5800, -85.948
1581.6000, -94.386
1581.6200,-100.058
1581.6400, -82.839
1581.6600, -84.657
1581.6800, -84.445
1581.7000, -81.843
1581.7200,-210.000
1581.7400, -84.410
1581.7600,-210.000
1581.7800, -87.800
1581.8000, -84.301
1581.8200, -85.343
1581.8400, -96.192
1581.8600, -86.778
1581.8800, -85.155
1581.9000, -86.053
1581.9200, -88.213
1581.9400, -86.332
1581.9600, -83.550
1581.9800, -86.125
1582.0000,-210.000
1582.0200, -81.630
1582.0400, -97.099
1582.0600,-210.000
1582.0800, -87.368
1582.1000, -81.180
1582.1200,-210.000
1582.1400, -87.046
1582.1600, -90.577
1582.1800, -89.287
1582.2000,-210.000
1582.2200, -89.270
1582.2400, -83.753
1582.2600, -83.561
1582.2800, -81.065
1582.3000,-210.000
1582.3200,-210.000
1582.3400, -90.050
1582.3600, -82.479
1582.3800, -86.942
1582.4000, -85.175
1582.4200, -91.599
1582.4400,-210.000
1582.4600, -83.129
1582.4800, -85.743
1582.5000, -84.217
1582.5200, -84.893
1582.5400, -94.181
1582.5600, -96.451
1582.5800, -83.930
1582.6000, -87.225
1582.6200, -85.114
1582.6400, -92.933
1582.6600,-210.000
1582.6800, -86.083
1582.7000,-210.000
1582.7200,-210.000
1582.7400, -80.616
1582.7600, -84.073
1582.7800, -86.959
1582.8000,-210.000
1582.8200, -84.928
1582.8400, -90.646
1582.8600, -87.892
1582.8800,-210.000
1582.9000,-210.000
1582.9200, -85.018
1582.9400, -85.927
1582.9600, -85.347
1582.9800,-210.000
1583.0000, -87.262
1583.0200, -82.573
1583.0400, -87.697
1583.0600, -84.343
1583.0800,-210.000
1583.1000, -84.759
1583.1200, -91.478
1583.1400, -88.674
1583.1600, -83.420
1583.1800, -88.544
1583.2000,-210.000
1583.2200, -85.115
1583.2400,-210.000
1583.2600, -89.430
1583.2800, -83.726
1583.3000, -85.136
1583.3200,-210.000
1583.3400, -81.984
1583.3600, -87.670
1583.3800, -81.883
1583.4000,-210.000
1583.4200, -86.958
1583.4400, -87.963
1583.4600, -84.094
1583.4800, -88.071
1583.5000, -83.513
1583.5200, -86.612
1583.5400, -89.948
1583.5600, -86.115
1583.5800, -87.439
1583.6000, -96.950
1583.6200,-210.000
1583.6400, -94.109
1583.6600, -84.302
1583.6800,-210.000
1583.7000, -81.716
1583.7200, -82.717
1583.7400,-210.000
1583.7600, -88.494
1583.7800, -85.998
1583.8000, -81.981
1583.8200, -83.634
1583.8400,-210.000
1583.8600, -83.747
1583.8800,-210.000
1583.9000, -89.951
1583.9200, -83.701
1583.9400, -81.183
1583.9600,-210.000
1583.9800, -84.015
1584.0000, -88.088
1584.0200, -90.948
1584.0400,-210.000
1584.0600, -82.189
1584.0800,-210.000
1584.1000, -86.842
1584.1200,-210.000
1584.1400, -87.857
1584.1600, -86.142
1584.1800, -82.387
1584.2000,-210.000
1584.2200, -82.337
1584.2400, -88.682
1584.2600,-210.000
1584.2800,-210.000
1584.3000, -85.386
1584.3200, -87.094
1584.3400, -81.296
1584.3600,-210.000
1584.3800, -84.347
1584.4000, -85.079
1584.4200, -85.732
1584.4400, -85.104
1584.4600, -89.720
1584.4800,-210.000
1584.5000, -82.249
1584.5200, -82.542
1584.5400,-210.000
1584.5600,-210.000
1584.5800,-210.000
1584.6000, -83.969
1584.6200,-210.000
1584.6400, -82.002
1584.6600,-210.000
1584.6800, -84.471
1584.7000, -85.552
1584.7200,-210.000
1584.7400, -81.182
1584.7600, -93.846
1584.7800, -85.151
1584.8000, -89.046
1584.8200, -81.098
1584.8400, -90.079
1584.8600, -83.938
1584.8800,-210.000
1584.9000,-210.000
1584.9200, -83.589
1584.9400, -83.637
1584.9600, -83.523
1584.9800,-210.000
1585.0000,-210.000
1585.0200, -94.006
1585.0400, -86.118
1585.0600,-210.000
1585.0800, -81.246
1585.1000,-210.000
1585.1200, -82.948
1585.1400,-210.000
1585.1600, -82.514
1585.1800,-210.000
1585.2000,-210.000
1585.2200, -86.722
1585.2400, -83.592
1585.2600, -83.097
1585.2800,-210.000
1585.3000, -83.660
1585.3200, -87.599
1585.3400, -81.663
1585.3600, -82.057
1585.3800, -85.524
1585.4000, -85.374
1585.4200, -86.751
1585.4400,-210.000
1585.4600, -84.496
1585.4800, -87.634
1585.5000,-210.000
1585.5200,-210.000
1585.5400, -80.850
1585.5600, -85.222
1585.5800,-210.000
1585.6000, -88.480
1585.6200, -87.049
1585.6400, -84.368
1585.6600, -86.662
1585.6800, -82.556
1585.7000, -86.428
1585.7200,-210.000
1585.7400, -85.829
1585.7600, -80.858
1585.7800,-210.000
1585.8000, -81.694
1585.8200, -81.908
1585.8400,-210.000
1585.8600, -92.802
1585.8800,-210.000
1585.9000, -84.149
1585.9200, -81.872
1585.9400, -86.029
1585.9600,-210.000
1585.9800,-210.000
1586.0000, -85.580
1586.0200, -83.620
1586.0400, -97.819
1586.0600, -83.521
1586.0800,-210.000
1586.1000, -84.608
1586.1200, -83.129
1586.1400, -91.658
1586.1600, -88.330
1586.1800, -94.209
1586.2000, -88.546
1586.2200, -86.658
1586.2400, -83.869
1586.2600,-102.378
1586.2800, -81.525
1586.3000,-210.000
1586.3200, -82.261
1586.3400,-210.000
1586.3600, -84.458
1586.3800, -94.524
1586.4000, -86.154
1586.4200,-210.000
1586.4400, -83.994
1586.4600, -86.585
1586.4800, -85.649
1586.5000, -84.667
1586.5200,-210.000
1586.5400, -81.637
1586.5600,-210.000
1586.5800, -86.301
1586.6000, -82.006
1586.6200, -88.210
1586.6400, -85.085
1586.6600, -83.786
1586.6800, -89.848
1586.7000,-210.000
1586.7200, -81.250
1586.7400, -87.879
1586.7600,-210.000
1586.7800, -84.559
1586.8000, -89.490
1586.8200, -86.342
1586.8400, -87.503
1586.8600,-210.000
1586.8800, -83.342
1586.9000,-102.317
1586.9200,-210.000
1586.9400, -82.235
1586.9600, -84.172
1586.9800, -85.194
1587.0000, -82.914
1587.0200,-210.000
1587.0400, -82.863
1587.0600,-210.000
1587.0800, -86.101
1587.1000, -86.250
1587.1200,-210.000
1587.1400,-210.000
1587.1600, -87.106
1587.1800, -84.706
1587.2000, -83.749
1587.2200, -90.175
1587.2400, -89.422
1587.2600, -84.725
1587.2800, -88.731
1587.3000, -82.028
1587.3200, -82.398
1587.3400, -85.800
1587.3600,-210.000
1587.3800, -85.302
1587.4000, -84.393
1587.4200, -84.691
1587.4400, -85.814
1587.4600, -85.654
1587.4800,-210.000
1587.5000,-210.000
1587.5200, -85.144
1587.5400, -80.382
1587.5600,-210.000
1587.5800, -80.206
1587.6000, -93.049
1587.6200, -82.954
1587.6400, -84.948
1587.6600,-210.000
1587.6800, -84.184
1587.7000,-210.000
1587.7200, -85.276
1587.7400,-210.000
1587.7600, -82.723
1587.7800, -84.334
1587.8000,-210.000
1587.8200, -82.014
1587.8400, -94.806
1587.8600, -80.876
1587.8800, -83.499
1587.9000, -89.707
1587.9200, -88.139
1587.9400,-210.000
1587.9600, -88.533
1587.9800, -82.566
1588.0000, -90.082
1588.0200, -92.134
1588.0400, -80.586
1588.0600, -92.264
1588.0800,-210.000
1588.1000, -83.110
1588.1200, -90.056
1588.1400, -80.973
1588.1600, -90.694
1588.1800,-210.000
1588.2000, -82.022
1588.2200, -94.953
1588.2400, -84.799
1588.2600, -87.604
1588.2800, -84.764
1588.3000,-210.000
1588.3200, -83.329
1588.3400, -90.598
1588.3600,-210.000
1588.3800, -83.936
1588.4000,-210.000
1588.4200,-210.000
1588.4400, -84.069
1588.4600, -87.914
1588.4800, -94.129
1588.5000,-210.000
1588.5200,-103.764
1588.5400, -87.234
1588.5600,-210.000
1588.5800, -80.546
1588.6000,-210.000
1588.6200,-210.000
1588.6400, -83.534
1588.6600, -85.982
1588.6800, -87.777
1588.7000, -85.283
1588.7200,-210.000
1588.7400, -92.640
1588.7600, -81.212
1588.7800, -94.464
1588.8000, -80.475
1588.8200, -90.814
1588.8400, -85.979
1588.8600, -91.503
1588.8800, -85.486
1588.9000, -89.187
1588.9200, -82.930
1588.9400,-210.000
1588.9600, -86.938
1588.9800, -83.136
1589.0000, -85.634
1589.0200, -85.188
1589.0400, -84.063
1589.0600, -81.966
1589.0800, -84.457
1589.1000, -90.593
1589.1200, -87.044
1589.1400, -89.668
1589.1600, -89.876
1589.1800,-210.000
1589.2000, -81.804
1589.2200,-210.000
1589.2400, -89.775
1589.2600,-210.000
1589.2800, -84.477
1589.3000,-210.000
1589.3200,-210.000
1589.3400, -85.806
1589.3600, -89.553
1589.3800, -85.149
1589.4000,-210.000
1589.4200, -79.907
1589.4400, -88.747
1589.4600, -83.112
1589.4800, -83.553
1589.5000,-210.000
1589.5200, -84.298
1589.5400, -88.919
1589.5600, -81.171
1589.5800, -97.277
1589.6000, -81.953
1589.6200,-210.000
1589.6400, -89.529
1589.6600, -81.464
1589.6800, -84.490
1589.7000, -83.771
1589.7200, -90.103
1589.7400,-210.000
1589.7600, -81.457
1589.7800, -82.770
1589.8000,-210.000
1589.8200,-210.000
1589.8400, -86.331
1589.8600, -84.725
1589.8800, -86.568
1589.9000, -87.934
1589.9200, -84.878
1589.9400, -94.038
1589.9600, -90.858
1589.9800, -83.914
1590.0000, -90.420
1590.0200,-210.000
1590.0400,-210.000
1590.0600, -82.627
1590.0800, -82.542
1590.1000, -95.744
1590.1200,-210.000
1590.1400,-210.000
1590.1600,-210.000
1590.1800, -81.513
1590.2000, -85.536
1590.2200,-210.000
1590.2400,-210.000
1590.2600,-210.000
1590.2800, -82.844
1590.3000, -86.527
1590.3200, -90.542
1590.3400, -84.926
1590.3600, -85.214
1590.3800, -89.789
1590.4000, -82.964
1590.4200, -89.424
1590.4400, -82.318
1590.4600,-210.000
1590.4800, -88.300
1590.5000, -84.658
1590.5200, -84.530
1590.5400, -88.465
1590.5600, -89.709
1590.5800,-210.000
1590.6000, -82.474
1590.6200,-210.000
1590.6400, -89.121
1590.6600, -93.365
1590.6800, -82.816
1590.7000,-210.000
1590.7200, -94.573
1590.7400, -82.680
1590.7600,-210.000
1590.7800, -80.488
1590.8000, -81.674
1590.8200, -89.845
1590.8400,-210.000
1590.8600, -82.651
1590.8800, -85.281
1590.9000,-210.000
1590.9200, -86.464
1590.9400, -82.300
1590.9600, -85.002
1590.9800, -86.242
1591.0000,-210.000
1591.0200, -81.939
1591.0400,-210.000
1591.0600, -92.707
1591.0800, -82.714
1591.1000, -87.110
1591.1200, -85.060
1591.1400,-210.000
1591.1600,-210.000
1591.1800, -83.036
1591.2000,-210.000
1591.2200, -81.115
1591.2400, -88.180
1591.2600, -87.722
1591.2800,-210.000
1591.3000, -83.461
1591.3200, -85.752
1591.3400, -90.787
1591.3600, -84.919
1591.3800, -83.216
1591.4000, -85.038
1591.4200, -87.174
1591.4400,-210.000
1591.4600, -84.726
1591.4800, -89.941
1591.5000, -85.220
1591.5200, -87.151
1591.5400, -95.486
1591.5600, -88.340
1591.5800, -82.028
1591.6000,-210.000
1591.6200,-210.000
1591.6400, -84.556
1591.6600, -87.831
1591.6800, -81.970
1591.7000,-210.000
1591.7200, -81.802
1591.7400, -85.810
1591.7600, -84.761
1591.7800, -82.003
1591.8000,-210.000
1591.8200, -87.974
1591.8400, -87.355
1591.8600, -91.593
1591.8800, -86.044
1591.9000, -83.581
1591.9200, -87.672
1591.9400, -83.484
1591.9600,-210.000
1591.9800, -81.483
1592.0000, -92.338
1592.0200, -84.883
1592.0400, -86.357
1592.0600,-210.000
1592.0800,-210.000
1592.1000, -83.720
1592.1200, -86.620
1592.1400,-210.000
1592.1600, -85.709
1592.1800, -87.184
1592.2000, -86.792
1592.2200, -87.784
1592.2400, -83.611
1592.2600, -94.323
1592.2800, -82.296
1592.3000,-210.000
1592.3200, -81.522
1592.3400, -86.187
1592.3600, -82.492
1592.3800,-210.000
1592.4000, -87.031
1592.4200, -86.676
1592.4400, -86.182
1592.4600, -85.052
1592.4800, -88.112
1592.5000, -95.705
1592.5200, -90.253
1592.5400, -88.999
1592.5600,-210.000
1592.5800, -80.092
1592.6000, -84.427
1592.6200,-210.000
1592.6400,-210.000
1592.6600,-210.000
1592.6800, -81.503
1592.7000, -92.297
1592.7200, -82.375
1592.7400, -83.802
1592.7600,-210.000
1592.7800,-210.000
1592.8000, -80.187
1592.8200,-210.000
1592.8400, -86.394
1592.8600, -86.286
1592.8800, -86.965
1592.9000, -83.419
1592.9200, -84.925
1592.9400,-100.603
1592.9600, -87.886
1592.9800,-210.000
1593.0000, -92.202
1593.0200, -83.602
1593.0400, -86.916
1593.0600,-210.000
1593.0800, -83.020
1593.1000,-210.000
1593.1200, -85.540
1593.1400, -82.288
1593.1600, -88.128
1593.1800, -84.377
1593.2000,-210.000
1593.2200, -91.612
1593.2400,-210.000
1593.2600, -85.667
1593.2800,-210.000
1593.3000, -85.913
1593.3200,-210.000
1593.3400, -85.083
1593.3600,-210.000
1593.3800, -81.848
1593.4000,-210.000
1593.4200, -81.485
1593.4400, -99.283
1593.4600, -81.686
1593.4800, -84.064
1593.5000,-210.000
1593.5200, -82.321
1593.5400, -83.488
1593.5600,-210.000
1593.5800, -82.030
1593.6000, -85.998
1593.6200,-210.000
1593.6400, -80.920
1593.6600,-210.000
1593.6800, -86.302
1593.7000, -84.048
1593.7200, -88.767
1593.7400, -82.478
1593.7600, -86.584
1593.7800, -87.543
1593.8000, -87.167
1593.8200,-210.000
1593.8400, -88.087
1593.8600, -88.686
1593.8800, -81.514
1593.9000, -84.626
1593.9200,-210.000
1593.9400, -89.514
1593.9600,-210.000
1593.9800,-210.000
1594.0000, -84.245
1594.0200, -86.481
1594.0400, -87.807
1594.0600, -82.446
1594.0800,-210.000
1594.1000,-210.000
1594.1200, -81.357
1594.1400, -85.967
1594.1600, -89.606
1594.1800, -89.610
1594.2000, -88.924
1594.2200, -83.550
1594.2400, -84.008
1594.2600, -86.390
1594.2800, -84.625
1594.3000, -89.188
1594.3200,-210.000
1594.3400, -83.652
1594.3600,-210.000
1594.3800, -82.829
1594.4000,-210.000
1594.4200, -85.564
1594.4400,-210.000
1594.4600,-210.000
1594.4800, -84.471
1594.5000, -83.623
1594.5200, -91.665
1594.5400, -82.202
1594.5600, -93.325
1594.5800, -82.648
1594.6000, -86.055
1594.6200,-210.000
1594.6400,-210.000
1594.6600, -83.260
1594.6800,-210.000
1594.7000,-210.000
1594.7200, -88.750
1594.7400, -81.834
1594.7600, -80.878
1594.7800,-210.000
1594.8000,-210.000
1594.8200, -81.263
1594.8400,-210.000
1594.8600, -84.010
1594.8800, -97.389
1594.9000, -94.799
1594.9200,-103.912
1594.9400, -86.685
1594.9600,-210.000
1594.9800, -83.710
1595.0000, -93.112
1595.0200,-210.000
1595.0400, -83.329
1595.0600, -93.956
1595.0800, -81.808
1595.1000,-210.000
1595.1200,-210.000
1595.1400, -80.884
1595.1600,-210.000
1595.1800,-210.000
1595.2000, -82.160
1595.2200, -83.816
1595.2400,-210.000
1595.2600, -86.998
1595.2800,-210.000
1595.3000, -80.058
1595.3200, -84.346
1595.3400,-210.000
1595.3600,-210.000
1595.3800, -81.305
1595.4000,-210.000
1595.4200, -85.006
1595.4400, -82.416
1595.4600, -83.969
1595.4800,-210.000
1595.5000, -90.502
1595.5200,-210.000
1595.5400, -83.171
1595.5600,-210.000
1595.5800, -83.621
1595.6000, -84.874
1595.6200, -82.928
1595.6400,-210.000
1595.6600, -87.949
1595.6800, -87.531
1595.7000,-210.000
1595.7200, -85.361
1595.7400, -88.228
1595.7600, -84.575
1595.7800, -84.406
1595.8000,-210.000
1595.8200,-210.000
1595.8400, -84.296
1595.8600, -87.477
1595.8800, -89.634
1595.9000,-210.000
1595.9200, -84.215
1595.9400, -83.497
1595.9600,-210.000
1595.9800,-210.000
1596.0000, -87.685
1596.0200, -97.725
1596.0400, -81.478
1596.0600, -91.499
1596.0800,-210.000
1596.1000, -80.259
1596.1200,-210.000
1596.1400, -84.519
1596.1600,-210.000
1596.1800, -82.614
1596.2000, -86.636
1596.2200, -82.706
1596.2400, -91.701
1596.2600, -84.013
1596.2800, -84.009
1596.3000, -89.692
1596.3200,-210.000
1596.3400, -85.861
1596.3600, -80.987
1596.3800, -88.324
1596.4000, -87.312
1596.4200,-210.000
1596.4400, -81.342
1596.4600, -91.926
1596.4800,-210.000
1596.5000, -83.183
1596.5200, -82.141
1596.5400,-210.000
1596.5600, -96.507
1596.5800, -86.061
1596.6000,-100.891
1596.6200, -81.322
1596.6400,-210.000
1596.6600, -82.830
1596.6800,-210.000
1596.7000, -80.708
1596.7200,-210.000
1596.7400, -82.614
1596.7600, -82.374
1596.7800,-210.000
1596.8000, -97.050
1596.8200,-210.000
1596.8400, -90.473
1596.8600, -91.937
1596.8800, -82.408
1596.9000, -86.617
1596.9200, -87.434
1596.9400, -88.238
1596.9600, -87.563
1596.9800, -84.669
1597.0000,-210.000
1597.0200, -84.646
1597.0400,-210.000
1597.0600, -83.961
1597.0800, -86.896
1597.1000, -82.138
1597.1200, -88.566
1597.1400,-210.000
1597.1600, -84.280
1597.1800,-210.000
1597.2000, -91.623
1597.2200,-210.000
1597.2400, -82.531
1597.2600,-210.000
1597.2800, -81.265
1597.3000, -86.228
1597.3200,-210.000
1597.3400, -84.740
1597.3600, -84.643
1597.3800,-210.000
1597.4000, -86.373
1597.4200, -90.575
1597.4400,-210.000
1597.4600,-210.000
1597.4800,-103.089
1597.5000, -83.621
1597.5200,-210.000
1597.5400, -81.705
1597.5600,-210.000
1597.5800, -96.922
1597.6000, -83.502
1597.6200, -93.689
1597.6400, -86.452
1597.6600, -81.810
1597.6800, -96.779
1597.7000, -82.541
1597.7200, -82.421
1597.7400, -84.906
1597.7600,-210.000
1597.7800,-210.000
1597.8000, -80.773
1597.8200, -84.916
1597.8400, -82.339
1597.8600, -83.005
1597.8800,-210.000
1597.9000, -83.671
1597.9200, -88.979
1597.9400, -86.173
1597.9600,-210.000
1597.9800, -86.189
1598.0000,-210.000
1598.0200,-210.000
1598.0400, -96.066
1598.0600,-210.000
1598.0800, -79.344
1598.1000, -82.772
1598.1200,-210.000
1598.1400,-210.000
1598.1600, -80.243
1598.1800,-210.000
1598.2000, -83.620
1598.2200, -83.716
1598.2400,-210.000
1598.2600, -82.236
1598.2800, -82.529
1598.3000, -86.952
1598.3200,-210.000
1598.3400, -79.577
1598.3600, -82.944
1598.3800, -84.937
1598.4000,-210.000
1598.4200, -82.240
1598.4400,-210.000
1598.4600, -82.761
1598.4800,-210.000
1598.5000, -84.234
1598.5200,-210.000
1598.5400, -83.188
1598.5600, -85.773
1598.5800,-210.000
1598.6000, -80.287
1598.6200,-210.000
1598.6400,-210.000
1598.6600, -81.502
1598.6800, -81.500
1598.7000, -86.675
1598.7200, -84.750
1598.7400,-210.000
1598.7600, -84.130
1598.7800, -83.247
1598.8000, -85.058
1598.8200, -83.606
1598.8400, -84.171
1598.8600,-210.000
1598.8800, -85.087
1598.9000, -92.935
1598.9200, -87.497
1598.9400,-210.000
1598.9600, -87.596
1598.9800, -84.064
1599.0000,-210.000
1599.0200, -87.908
1599.0400, -84.123
1599.0600, -85.917
1599.0800,-210.000
1599.1000, -88.878
1599.1200, -86.895
1599.1400,-104.644
1599.1600,-210.000
1599.1800, -79.946
1599.2000,-210.000
1599.2200, -79.562
1599.2400,-210.000
1599.2600,-210.000
1599.2800, -81.591
1599.3000,-210.000
1599.3200,-210.000
1599.3400, -84.155
1599.3600, -80.667
1599.3800, -83.019
1599.4000, -90.403
1599.4200, -83.545
1599.4400, -85.862
1599.4600,-210.000
1599.4800, -80.962
1599.5000, -87.011
1599.5200, -87.209
1599.5400, -83.871
1599.5600, -84.978
1599.5800, -88.062
1599.6000, -85.483
1599.6200,-210.000
1599.6400, -95.017
1599.6600, -81.254
1599.6800, -89.744
1599.7000, -83.474
1599.7200,-210.000
1599.7400, -80.308
1599.7600,-210.000
1599.7800, -93.012
1599.8000, -79.690
1599.8200,-210.000
1599.8400, -80.772
1599.8600, -92.354
1599.8800, -93.705
1599.9000, -82.321
1599.9200, -87.055
1599.9400, -85.421
1599.9600, -84.018
1599.9800,-210.000
1600.0000,-210.000
