70BCSV 	
// AQ6370B OPTICAL SPECTRUM ANALYZER //                 
25
"CTRWL",1550.000000
"SPAN", 100.000000
"START WL",1500.000000
"STOP WL",1600.000000
"WLFREQ", 0
"REFL",-62.8
"LSCL", 5.0
"RESLN",0.100
"AVG",   1
"SMPLAUTO",      0
"SMPL",       5001
"SMPLINTVL",0.0200
"HIGH1"
"MEAS"
"LSUNT",0
"NMSKH","OFF"
"RESCOR",0
"RESPARM", 9050
"FREQPARM", 9050






"[TRACE DATA]"
1500.0000,-210.000
1500.0200,-210.000
1500.0400, -89.154
1500.0600, -83.585
1500.0800, -84.081
1500.1000,-210.000
1500.1200,-210.000
1500.1400, -91.475
1500.1600, -86.390
1500.1800, -88.215
1500.2000, -86.175
1500.2200, -85.465
1500.2400, -88.548
1500.2600, -85.149
1500.2800,-210.000
1500.3000,-210.000
1500.3200,-210.000
1500.3400, -85.853
1500.3600, -85.804
1500.3800, -89.296
1500.4000, -86.261
1500.4200,-210.000
1500.4400, -85.784
1500.4600, -86.159
1500.4800, -87.918
1500.5000, -86.284
1500.5200,-210.000
1500.5400,-210.000
1500.5600, -88.060
1500.5800, -87.793
1500.6000,-210.000
1500.6200, -83.935
1500.6400, -86.425
1500.6600,-210.000
1500.6800, -85.983
1500.7000, -89.577
1500.7200,-210.000
1500.7400, -85.454
1500.7600,-210.000
1500.7800, -87.906
1500.8000, -91.821
1500.8200, -89.091
1500.8400, -83.842
1500.8600, -86.145
1500.8800,-210.000
1500.9000, -94.310
1500.9200,-102.088
1500.9400, -86.366
1500.9600, -82.980
1500.9800, -90.238
1501.0000, -93.983
1501.0200,-210.000
1501.0400,-210.000
1501.0600, -88.428
1501.0800,-210.000
1501.1000, -84.642
1501.1200,-210.000
1501.1400, -87.831
1501.1600, -84.012
1501.1800,-101.332
1501.2000, -86.297
1501.2200, -89.141
1501.2400,-210.000
1501.2600, -83.873
1501.2800, -88.712
1501.3000, -84.275
1501.3200,-210.000
1501.3400, -89.591
1501.3600, -85.346
1501.3800, -85.814
1501.4000, -94.213
1501.4200,-210.000
1501.4400, -88.693
1501.4600,-210.000
1501.4800, -89.184
1501.5000, -87.285
1501.5200, -87.820
1501.5400,-210.000
1501.5600, -91.015
1501.5800,-210.000
1501.6000, -91.903
1501.6200,-210.000
1501.6400, -86.364
1501.6600,-101.693
1501.6800, -89.498
1501.7000, -84.932
1501.7200,-210.000
1501.7400, -86.753
1501.7600,-210.000
1501.7800, -90.040
1501.8000, -87.506
1501.8200, -89.367
1501.8400,-210.000
1501.8600, -87.555
1501.8800,-210.000
1501.9000, -92.468
1501.9200, -90.170
1501.9400, -87.161
1501.9600, -86.884
1501.9800, -91.255
1502.0000, -87.406
1502.0200, -87.969
1502.0400, -87.194
1502.0600, -89.617
1502.0800,-210.000
1502.1000,-210.000
1502.1200,-210.000
1502.1400, -84.611
1502.1600, -95.322
1502.1800, -94.752
1502.2000, -87.060
1502.2200,-210.000
1502.2400, -85.218
1502.2600, -88.968
1502.2800, -94.993
1502.3000,-210.000
1502.3200, -86.960
1502.3400, -82.611
1502.3600,-210.000
1502.3800, -89.925
1502.4000, -85.103
1502.4200,-210.000
1502.4400, -82.698
1502.4600, -85.817
1502.4800, -89.885
1502.5000, -85.543
1502.5200,-210.000
1502.5400,-210.000
1502.5600,-210.000
1502.5800, -94.812
1502.6000, -85.149
1502.6200,-210.000
1502.6400, -82.634
1502.6600, -89.159
1502.6800, -93.335
1502.7000,-210.000
1502.7200, -88.412
1502.7400,-102.862
1502.7600, -85.211
1502.7800, -88.945
1502.8000, -83.025
1502.8200,-210.000
1502.8400, -88.988
1502.8600, -84.430
1502.8800,-210.000
1502.9000, -85.316
1502.9200,-210.000
1502.9400, -83.548
1502.9600,-210.000
1502.9800, -83.784
1503.0000,-210.000
1503.0200, -89.592
1503.0400, -90.740
1503.0600,-100.350
1503.0800,-210.000
1503.1000,-210.000
1503.1200, -84.319
1503.1400, -92.274
1503.1600, -83.632
1503.1800, -84.253
1503.2000, -87.956
1503.2200, -87.628
1503.2400, -87.749
1503.2600, -84.908
1503.2800, -85.603
1503.3000,-210.000
1503.3200, -88.108
1503.3400, -88.030
1503.3600,-210.000
1503.3800, -81.844
1503.4000,-210.000
1503.4200,-210.000
1503.4400, -89.685
1503.4600, -83.742
1503.4800,-210.000
1503.5000, -89.299
1503.5200, -90.800
1503.5400,-210.000
1503.5600, -99.213
1503.5800, -93.758
1503.6000, -85.372
1503.6200, -97.437
1503.6400, -96.079
1503.6600, -89.517
1503.6800, -90.060
1503.7000, -83.435
1503.7200, -86.942
1503.7400,-101.638
1503.7600,-210.000
1503.7800, -85.271
1503.8000, -92.137
1503.8200, -84.273
1503.8400, -87.796
1503.8600, -87.572
1503.8800,-210.000
1503.9000, -86.587
1503.9200, -92.920
1503.9400, -85.003
1503.9600,-210.000
1503.9800, -83.218
1504.0000,-210.000
1504.0200, -82.588
1504.0400,-210.000
1504.0600, -82.987
1504.0800, -91.527
1504.1000,-210.000
1504.1200, -83.421
1504.1400,-210.000
1504.1600, -81.271
1504.1800,-210.000
1504.2000, -99.045
1504.2200, -84.097
1504.2400, -87.069
1504.2600,-210.000
1504.2800,-210.000
1504.3000, -84.805
1504.3200, -84.279
1504.3400, -86.225
1504.3600,-210.000
1504.3800, -83.554
1504.4000, -85.155
1504.4200, -87.494
1504.4400,-210.000
1504.4600, -88.823
1504.4800,-210.000
1504.5000, -81.978
1504.5200,-210.000
1504.5400, -82.290
1504.5600, -82.644
1504.5800,-210.000
1504.6000,-210.000
1504.6200, -85.638
1504.6400,-101.516
1504.6600, -91.360
1504.6800, -81.524
1504.7000, -87.266
1504.7200,-210.000
1504.7400, -94.109
1504.7600, -94.369
1504.7800, -86.569
1504.8000, -82.990
1504.8200, -83.762
1504.8400,-210.000
1504.8600,-210.000
1504.8800, -90.223
1504.9000, -91.732
1504.9200, -83.414
1504.9400, -89.420
1504.9600, -84.999
1504.9800,-210.000
1505.0000, -87.424
1505.0200, -82.250
1505.0400, -87.669
1505.0600, -85.712
1505.0800,-210.000
1505.1000, -89.607
1505.1200, -91.953
1505.1400,-103.785
1505.1600,-210.000
1505.1800, -85.479
1505.2000, -90.668
1505.2200,-210.000
1505.2400, -85.675
1505.2600,-210.000
1505.2800, -82.866
1505.3000, -86.892
1505.3200,-210.000
1505.3400, -88.298
1505.3600,-210.000
1505.3800,-210.000
1505.4000, -91.719
1505.4200, -84.062
1505.4400, -88.698
1505.4600,-210.000
1505.4800, -82.394
1505.5000,-210.000
1505.5200, -85.256
1505.5400,-210.000
1505.5600,-210.000
1505.5800, -86.846
1505.6000, -91.727
1505.6200, -86.721
1505.6400, -85.560
1505.6600, -85.506
1505.6800, -84.991
1505.7000, -85.838
1505.7200,-210.000
1505.7400, -87.756
1505.7600,-210.000
1505.7800, -83.720
1505.8000,-210.000
1505.8200, -88.143
1505.8400,-210.000
1505.8600,-210.000
1505.8800, -88.296
1505.9000, -86.578
1505.9200, -86.027
1505.9400,-210.000
1505.9600,-210.000
1505.9800, -89.282
1506.0000, -82.930
1506.0200, -83.922
1506.0400,-100.497
1506.0600,-210.000
1506.0800, -89.858
1506.1000, -84.730
1506.1200, -82.323
1506.1400,-210.000
1506.1600, -85.978
1506.1800, -92.525
1506.2000, -85.352
1506.2200,-210.000
1506.2400,-210.000
1506.2600, -84.654
1506.2800, -81.939
1506.3000, -94.155
1506.3200,-210.000
1506.3400, -89.932
1506.3600, -82.239
1506.3800,-210.000
1506.4000, -87.241
1506.4200, -86.403
1506.4400,-210.000
1506.4600,-210.000
1506.4800, -85.941
1506.5000, -83.227
1506.5200, -87.556
1506.5400,-210.000
1506.5600, -87.705
1506.5800, -87.832
1506.6000,-210.000
1506.6200, -87.143
1506.6400,-210.000
1506.6600, -84.264
1506.6800,-210.000
1506.7000, -86.660
1506.7200,-100.263
1506.7400, -94.927
1506.7600, -90.363
1506.7800, -84.258
1506.8000,-210.000
1506.8200,-210.000
1506.8400, -85.712
1506.8600, -83.821
1506.8800,-210.000
1506.9000,-210.000
1506.9200, -88.712
1506.9400,-210.000
1506.9600, -81.956
1506.9800, -91.406
1507.0000,-210.000
1507.0200, -86.113
1507.0400,-210.000
1507.0600, -86.552
1507.0800, -85.165
1507.1000,-210.000
1507.1200, -83.884
1507.1400,-210.000
1507.1600,-210.000
1507.1800, -83.457
1507.2000, -83.175
1507.2200, -88.945
1507.2400, -82.631
1507.2600, -87.451
1507.2800,-210.000
1507.3000, -85.194
1507.3200, -83.243
1507.3400,-210.000
1507.3600,-210.000
1507.3800, -90.842
1507.4000, -83.667
1507.4200,-210.000
1507.4400, -84.004
1507.4600, -89.187
1507.4800, -85.995
1507.5000, -86.916
1507.5200, -90.679
1507.5400, -87.447
1507.5600, -86.318
1507.5800, -86.369
1507.6000, -90.319
1507.6200, -85.987
1507.6400, -88.320
1507.6600, -84.384
1507.6800,-210.000
1507.7000, -87.297
1507.7200, -86.172
1507.7400, -91.398
1507.7600, -86.695
1507.7800, -84.277
1507.8000, -89.971
1507.8200, -93.753
1507.8400, -85.178
1507.8600, -85.939
1507.8800, -90.650
1507.9000, -84.115
1507.9200, -87.059
1507.9400,-210.000
1507.9600, -87.085
1507.9800, -87.498
1508.0000,-210.000
1508.0200, -86.306
1508.0400, -85.788
1508.0600,-210.000
1508.0800,-210.000
1508.1000, -95.670
1508.1200, -92.611
1508.1400,-210.000
1508.1600, -85.491
1508.1800, -88.082
1508.2000, -88.405
1508.2200,-210.000
1508.2400, -90.608
1508.2600, -93.967
1508.2800, -98.327
1508.3000, -85.564
1508.3200, -95.772
1508.3400,-210.000
1508.3600, -82.682
1508.3800, -83.539
1508.4000, -92.571
1508.4200,-210.000
1508.4400,-210.000
1508.4600, -88.971
1508.4800, -85.105
1508.5000, -83.687
1508.5200,-210.000
1508.5400, -90.867
1508.5600, -92.571
1508.5800,-210.000
1508.6000,-111.029
1508.6200, -85.109
1508.6400,-210.000
1508.6600,-210.000
1508.6800, -80.912
1508.7000,-210.000
1508.7200, -86.427
1508.7400,-210.000
1508.7600, -83.972
1508.7800, -87.557
1508.8000, -83.107
1508.8200, -89.750
1508.8400, -83.283
1508.8600,-210.000
1508.8800, -84.473
1508.9000, -83.583
1508.9200,-210.000
1508.9400, -85.156
1508.9600,-210.000
1508.9800, -84.804
1509.0000, -90.429
1509.0200, -83.493
1509.0400,-210.000
1509.0600, -84.271
1509.0800,-210.000
1509.1000,-210.000
1509.1200,-210.000
1509.1400, -83.966
1509.1600, -86.959
1509.1800, -85.117
1509.2000, -83.522
1509.2200,-210.000
1509.2400,-210.000
1509.2600, -85.244
1509.2800, -85.448
1509.3000,-210.000
1509.3200,-210.000
1509.3400, -83.464
1509.3600,-210.000
1509.3800, -81.025
1509.4000, -98.297
1509.4200,-210.000
1509.4400, -84.132
1509.4600, -89.489
1509.4800, -82.591
1509.5000, -94.957
1509.5200,-210.000
1509.5400, -88.911
1509.5600,-210.000
1509.5800, -87.630
1509.6000,-210.000
1509.6200, -83.793
1509.6400,-210.000
1509.6600,-210.000
1509.6800, -89.668
1509.7000, -92.322
1509.7200, -88.144
1509.7400, -96.046
1509.7600, -86.208
1509.7800, -85.815
1509.8000,-210.000
1509.8200, -98.331
1509.8400,-210.000
1509.8600, -88.464
1509.8800, -88.448
1509.9000, -90.229
1509.9200, -84.285
1509.9400, -86.267
1509.9600, -90.919
1509.9800, -85.342
1510.0000, -84.762
1510.0200, -84.952
1510.0400, -86.513
1510.0600, -84.097
1510.0800,-210.000
1510.1000, -86.303
1510.1200, -89.995
1510.1400, -88.423
1510.1600,-210.000
1510.1800, -87.151
1510.2000, -95.113
1510.2200,-210.000
1510.2400, -85.427
1510.2600, -81.729
1510.2800, -96.182
1510.3000, -87.057
1510.3200, -89.297
1510.3400, -88.165
1510.3600, -84.166
1510.3800, -84.355
1510.4000,-210.000
1510.4200, -82.452
1510.4400, -89.405
1510.4600, -86.523
1510.4800, -87.128
1510.5000,-210.000
1510.5200,-210.000
1510.5400, -89.468
1510.5600,-210.000
1510.5800, -83.048
1510.6000, -85.354
1510.6200,-210.000
1510.6400, -91.037
1510.6600, -86.303
1510.6800, -84.708
1510.7000,-210.000
1510.7200,-210.000
1510.7400,-210.000
1510.7600, -81.101
1510.7800,-210.000
1510.8000,-210.000
1510.8200, -82.940
1510.8400,-210.000
1510.8600,-210.000
1510.8800,-210.000
1510.9000,-210.000
1510.9200, -82.950
1510.9400, -82.969
1510.9600, -89.222
1510.9800,-210.000
1511.0000, -84.440
1511.0200,-210.000
1511.0400, -91.442
1511.0600, -86.851
1511.0800, -89.681
1511.1000, -91.162
1511.1200, -86.334
1511.1400,-210.000
1511.1600, -83.607
1511.1800, -87.034
1511.2000, -86.828
1511.2200,-210.000
1511.2400, -88.901
1511.2600,-210.000
1511.2800, -83.392
1511.3000,-210.000
1511.3200,-210.000
1511.3400,-210.000
1511.3600, -85.197
1511.3800, -82.154
1511.4000, -89.351
1511.4200, -83.584
1511.4400, -90.668
1511.4600, -90.391
1511.4800,-210.000
1511.5000, -85.881
1511.5200,-210.000
1511.5400,-210.000
1511.5600, -82.691
1511.5800,-210.000
1511.6000, -81.036
1511.6200,-210.000
1511.6400,-210.000
1511.6600, -84.915
1511.6800, -88.894
1511.7000, -86.671
1511.7200, -92.318
1511.7400, -90.056
1511.7600, -94.986
1511.7800, -85.367
1511.8000, -85.797
1511.8200, -82.374
1511.8400,-210.000
1511.8600, -83.468
1511.8800,-210.000
1511.9000, -85.752
1511.9200, -83.197
1511.9400,-210.000
1511.9600, -87.670
1511.9800,-210.000
1512.0000,-210.000
1512.0200, -88.492
1512.0400, -85.451
1512.0600,-210.000
1512.0800, -84.628
1512.1000, -88.691
1512.1200,-210.000
1512.1400, -83.575
1512.1600, -86.697
1512.1800,-210.000
1512.2000,-210.000
1512.2200, -83.211
1512.2400, -86.361
1512.2600, -93.539
1512.2800, -85.363
1512.3000,-210.000
1512.3200,-210.000
1512.3400, -92.129
1512.3600, -83.617
1512.3800,-210.000
1512.4000,-210.000
1512.4200, -85.434
1512.4400,-210.000
1512.4600, -86.069
1512.4800, -84.394
1512.5000, -86.681
1512.5200, -83.532
1512.5400,-210.000
1512.5600, -82.640
1512.5800,-210.000
1512.6000,-210.000
1512.6200, -90.251
1512.6400,-210.000
1512.6600, -81.733
1512.6800, -82.669
1512.7000,-210.000
1512.7200,-210.000
1512.7400,-210.000
1512.7600,-210.000
1512.7800, -84.045
1512.8000, -84.328
1512.8200, -83.098
1512.8400,-210.000
1512.8600, -86.989
1512.8800,-210.000
1512.9000, -85.072
1512.9200, -83.857
1512.9400,-210.000
1512.9600, -81.408
1512.9800, -85.716
1513.0000,-210.000
1513.0200, -85.764
1513.0400, -83.703
1513.0600,-100.086
1513.0800,-210.000
1513.1000, -87.935
1513.1200, -82.804
1513.1400, -90.274
1513.1600,-210.000
1513.1800,-210.000
1513.2000, -85.324
1513.2200,-210.000
1513.2400, -82.100
1513.2600, -92.706
1513.2800, -87.057
1513.3000,-210.000
1513.3200, -97.351
1513.3400, -91.247
1513.3600,-210.000
1513.3800, -81.650
1513.4000,-210.000
1513.4200, -85.704
1513.4400, -93.058
1513.4600,-210.000
1513.4800, -85.225
1513.5000,-210.000
1513.5200, -88.256
1513.5400, -92.649
1513.5600, -92.696
1513.5800,-210.000
1513.6000, -87.192
1513.6200, -87.035
1513.6400,-210.000
1513.6600, -85.646
1513.6800,-210.000
1513.7000, -89.419
1513.7200, -88.363
1513.7400, -87.927
1513.7600, -82.095
1513.7800,-210.000
1513.8000, -85.583
1513.8200,-210.000
1513.8400, -82.640
1513.8600,-210.000
1513.8800, -88.021
1513.9000, -86.747
1513.9200,-210.000
1513.9400, -91.464
1513.9600, -94.296
1513.9800, -82.969
1514.0000, -86.604
1514.0200, -88.229
1514.0400, -89.233
1514.0600,-210.000
1514.0800, -81.802
1514.1000, -93.559
1514.1200, -83.465
1514.1400, -86.858
1514.1600, -88.349
1514.1800, -90.669
1514.2000, -84.807
1514.2200,-210.000
1514.2400, -91.817
1514.2600, -81.268
1514.2800,-210.000
1514.3000, -85.446
1514.3200, -84.063
1514.3400,-210.000
1514.3600, -83.963
1514.3800, -87.169
1514.4000,-210.000
1514.4200, -81.919
1514.4400,-210.000
1514.4600,-210.000
1514.4800,-210.000
1514.5000, -84.914
1514.5200,-210.000
1514.5400, -81.189
1514.5600,-210.000
1514.5800, -87.299
1514.6000,-210.000
1514.6200, -84.950
1514.6400, -83.193
1514.6600,-210.000
1514.6800, -93.415
1514.7000, -86.535
1514.7200,-210.000
1514.7400, -93.240
1514.7600, -82.064
1514.7800, -88.043
1514.8000, -87.870
1514.8200,-210.000
1514.8400, -85.456
1514.8600,-210.000
1514.8800, -92.714
1514.9000, -95.627
1514.9200, -84.898
1514.9400, -84.192
1514.9600,-210.000
1514.9800,-210.000
1515.0000, -87.932
1515.0200, -85.275
1515.0400, -94.920
1515.0600, -84.865
1515.0800,-210.000
1515.1000, -87.907
1515.1200, -86.501
1515.1400, -85.690
1515.1600,-210.000
1515.1800, -91.473
1515.2000, -86.501
1515.2200, -94.500
1515.2400, -91.732
1515.2600, -88.702
1515.2800,-210.000
1515.3000, -82.359
1515.3200,-210.000
1515.3400, -83.947
1515.3600,-210.000
1515.3800, -89.996
1515.4000, -81.839
1515.4200, -83.213
1515.4400,-210.000
1515.4600, -83.485
1515.4800, -89.757
1515.5000, -86.417
1515.5200, -87.204
1515.5400,-210.000
1515.5600, -82.619
1515.5800, -85.700
1515.6000, -84.016
1515.6200,-210.000
1515.6400,-210.000
1515.6600,-210.000
1515.6800, -85.045
1515.7000,-210.000
1515.7200, -94.176
1515.7400, -81.112
1515.7600,-210.000
1515.7800,-210.000
1515.8000, -89.278
1515.8200, -84.505
1515.8400,-210.000
1515.8600, -86.242
1515.8800,-210.000
1515.9000, -83.059
1515.9200, -84.470
1515.9400, -85.936
1515.9600, -87.247
1515.9800,-210.000
1516.0000, -85.220
1516.0200,-210.000
1516.0400, -85.595
1516.0600, -85.187
1516.0800, -86.860
1516.1000,-210.000
1516.1200,-210.000
1516.1400, -93.305
1516.1600, -81.462
1516.1800, -86.162
1516.2000,-210.000
1516.2200, -87.396
1516.2400, -86.445
1516.2600, -83.218
1516.2800,-210.000
1516.3000,-210.000
1516.3200, -95.237
1516.3400, -85.082
1516.3600,-210.000
1516.3800, -82.838
1516.4000,-210.000
1516.4200, -88.997
1516.4400, -83.067
1516.4600, -90.258
1516.4800, -92.062
1516.5000, -89.579
1516.5200, -86.288
1516.5400,-210.000
1516.5600,-210.000
1516.5800,-210.000
1516.6000, -89.010
1516.6200, -80.927
1516.6400, -86.869
1516.6600, -86.025
1516.6800, -85.184
1516.7000, -93.053
1516.7200,-210.000
1516.7400, -85.002
1516.7600, -93.768
1516.7800,-210.000
1516.8000, -88.652
1516.8200, -86.300
1516.8400,-210.000
1516.8600,-210.000
1516.8800, -81.073
1516.9000, -86.623
1516.9200, -92.254
1516.9400,-210.000
1516.9600, -82.287
1516.9800, -93.027
1517.0000, -90.847
1517.0200,-210.000
1517.0400, -80.831
1517.0600,-210.000
1517.0800, -91.441
1517.1000, -87.666
1517.1200, -95.345
1517.1400, -83.802
1517.1600, -86.837
1517.1800,-210.000
1517.2000, -83.537
1517.2200, -86.110
1517.2400,-210.000
1517.2600, -85.751
1517.2800,-210.000
1517.3000, -87.954
1517.3200, -81.116
1517.3400, -83.943
1517.3600,-210.000
1517.3800,-210.000
1517.4000, -81.990
1517.4200,-210.000
1517.4400, -91.026
1517.4600,-210.000
1517.4800, -84.878
1517.5000, -84.145
1517.5200,-210.000
1517.5400, -94.175
1517.5600,-210.000
1517.5800, -87.109
1517.6000,-210.000
1517.6200, -84.961
1517.6400,-210.000
1517.6600, -94.862
1517.6800,-210.000
1517.7000, -84.835
1517.7200,-102.018
1517.7400, -92.855
1517.7600,-210.000
1517.7800,-210.000
1517.8000, -82.840
1517.8200,-210.000
1517.8400, -87.205
1517.8600, -86.609
1517.8800,-210.000
1517.9000, -85.033
1517.9200, -88.705
1517.9400, -85.540
1517.9600,-210.000
1517.9800, -83.755
1518.0000,-210.000
1518.0200, -83.031
1518.0400,-210.000
1518.0600,-210.000
1518.0800, -85.574
1518.1000, -87.165
1518.1200, -87.366
1518.1400, -96.863
1518.1600, -93.155
1518.1800, -89.071
1518.2000, -88.663
1518.2200, -88.250
1518.2400,-210.000
1518.2600,-210.000
1518.2800, -85.900
1518.3000,-210.000
1518.3200,-210.000
1518.3400, -89.774
1518.3600, -84.498
1518.3800,-210.000
1518.4000, -91.004
1518.4200, -84.128
1518.4400, -84.018
1518.4600,-210.000
1518.4800, -82.643
1518.5000, -91.739
1518.5200,-210.000
1518.5400, -82.647
1518.5600, -90.940
1518.5800, -87.292
1518.6000, -85.477
1518.6200,-210.000
1518.6400, -82.063
1518.6600,-210.000
1518.6800, -83.990
1518.7000, -88.388
1518.7200, -84.828
1518.7400,-210.000
1518.7600, -85.690
1518.7800, -84.911
1518.8000,-210.000
1518.8200, -81.977
1518.8400,-210.000
1518.8600, -85.700
1518.8800, -81.650
1518.9000, -92.260
1518.9200, -85.797
1518.9400,-210.000
1518.9600, -85.550
1518.9800, -90.355
1519.0000,-210.000
1519.0200, -89.125
1519.0400,-210.000
1519.0600, -88.364
1519.0800, -88.783
1519.1000,-210.000
1519.1200, -83.027
1519.1400, -87.520
1519.1600, -84.086
1519.1800, -89.470
1519.2000, -85.697
1519.2200, -86.599
1519.2400, -90.618
1519.2600, -87.828
1519.2800, -91.351
1519.3000, -86.559
1519.3200,-210.000
1519.3400, -99.756
1519.3600, -87.695
1519.3800,-210.000
1519.4000, -84.092
1519.4200,-210.000
1519.4400,-210.000
1519.4600,-210.000
1519.4800, -83.589
1519.5000, -87.443
1519.5200, -93.958
1519.5400,-210.000
1519.5600,-108.375
1519.5800, -95.775
1519.6000, -86.547
1519.6200,-210.000
1519.6400, -88.067
1519.6600,-210.000
1519.6800,-210.000
1519.7000, -86.559
1519.7200,-210.000
1519.7400, -91.050
1519.7600,-210.000
1519.7800, -81.770
1519.8000,-210.000
1519.8200,-210.000
1519.8400,-210.000
1519.8600, -83.345
1519.8800, -91.019
1519.9000,-210.000
1519.9200, -84.917
1519.9400, -88.054
1519.9600,-210.000
1519.9800, -93.422
1520.0000,-210.000
1520.0200, -84.621
1520.0400, -89.055
1520.0600,-210.000
1520.0800,-210.000
1520.1000, -90.635
1520.1200, -83.418
1520.1400,-210.000
1520.1600,-210.000
1520.1800, -86.302
1520.2000, -87.183
1520.2200, -87.653
1520.2400, -85.483
1520.2600,-210.000
1520.2800, -83.019
1520.3000,-210.000
1520.3200, -83.312
1520.3400, -85.601
1520.3600, -83.718
1520.3800,-210.000
1520.4000, -83.432
1520.4200,-210.000
1520.4400, -82.067
1520.4600, -87.181
1520.4800,-210.000
1520.5000,-210.000
1520.5200, -89.488
1520.5400,-210.000
1520.5600, -83.875
1520.5800, -84.764
1520.6000, -96.112
1520.6200,-210.000
1520.6400,-210.000
1520.6600, -82.631
1520.6800, -86.648
1520.7000, -95.365
1520.7200,-210.000
1520.7400, -82.345
1520.7600, -88.244
1520.7800, -89.733
1520.8000,-100.107
1520.8200, -89.976
1520.8400, -87.803
1520.8600,-210.000
1520.8800, -86.836
1520.9000,-210.000
1520.9200, -87.551
1520.9400, -84.334
1520.9600, -85.794
1520.9800,-210.000
1521.0000, -94.488
1521.0200, -85.007
1521.0400, -88.619
1521.0600,-210.000
1521.0800, -84.733
1521.1000,-210.000
1521.1200, -87.173
1521.1400, -84.002
1521.1600, -86.896
1521.1800,-210.000
1521.2000, -90.106
1521.2200, -83.349
1521.2400,-210.000
1521.2600, -83.882
1521.2800, -85.233
1521.3000, -84.085
1521.3200, -95.701
1521.3400, -90.042
1521.3600,-210.000
1521.3800,-210.000
1521.4000, -84.733
1521.4200,-210.000
1521.4400, -91.888
1521.4600,-210.000
1521.4800, -84.735
1521.5000,-210.000
1521.5200, -86.033
1521.5400, -91.183
1521.5600, -85.989
1521.5800, -91.724
1521.6000, -84.295
1521.6200, -89.191
1521.6400, -87.168
1521.6600, -84.881
1521.6800,-210.000
1521.7000, -86.027
1521.7200, -86.551
1521.7400, -92.617
1521.7600, -89.872
1521.7800, -83.477
1521.8000, -85.720
1521.8200, -83.662
1521.8400, -85.901
1521.8600, -86.565
1521.8800, -85.846
1521.9000,-210.000
1521.9200,-210.000
1521.9400, -89.897
1521.9600, -88.268
1521.9800, -88.197
1522.0000,-210.000
1522.0200, -84.832
1522.0400,-210.000
1522.0600, -83.772
1522.0800, -90.691
1522.1000,-210.000
1522.1200, -83.897
1522.1400, -83.793
1522.1600,-210.000
1522.1800,-210.000
1522.2000, -84.685
1522.2200, -84.642
1522.2400, -84.232
1522.2600,-210.000
1522.2800, -83.351
1522.3000, -83.266
1522.3200, -88.250
1522.3400, -86.350
1522.3600,-210.000
1522.3800, -83.674
1522.4000, -89.176
1522.4200,-210.000
1522.4400, -87.561
1522.4600, -89.076
1522.4800, -81.178
1522.5000,-101.640
1522.5200,-210.000
1522.5400, -85.613
1522.5600, -89.174
1522.5800, -85.978
1522.6000,-210.000
1522.6200, -81.644
1522.6400, -87.921
1522.6600, -83.561
1522.6800, -89.971
1522.7000, -85.291
1522.7200, -83.334
1522.7400, -84.687
1522.7600, -91.884
1522.7800, -93.324
1522.8000,-210.000
1522.8200,-210.000
1522.8400, -84.658
1522.8600, -82.777
1522.8800, -82.926
1522.9000, -96.917
1522.9200,-210.000
1522.9400,-210.000
1522.9600,-210.000
1522.9800, -88.147
1523.0000, -83.051
1523.0200,-210.000
1523.0400,-210.000
1523.0600, -98.551
1523.0800, -83.165
1523.1000, -86.152
1523.1200, -88.532
1523.1400, -90.379
1523.1600, -83.954
1523.1800,-210.000
1523.2000, -87.473
1523.2200,-210.000
1523.2400, -87.880
1523.2600, -90.527
1523.2800, -83.175
1523.3000, -86.267
1523.3200,-210.000
1523.3400, -83.920
1523.3600, -98.035
1523.3800, -88.023
1523.4000, -93.748
1523.4200, -88.630
1523.4400, -84.722
1523.4600,-210.000
1523.4800,-210.000
1523.5000, -81.742
1523.5200,-210.000
1523.5400, -84.156
1523.5600,-210.000
1523.5800, -87.656
1523.6000, -83.309
1523.6200,-210.000
1523.6400, -87.590
1523.6600,-210.000
1523.6800, -82.746
1523.7000, -84.775
1523.7200, -87.809
1523.7400, -86.945
1523.7600, -89.587
1523.7800,-210.000
1523.8000, -82.860
1523.8200,-210.000
1523.8400, -90.728
1523.8600, -89.849
1523.8800, -87.067
1523.9000, -84.426
1523.9200,-210.000
1523.9400, -81.779
1523.9600, -88.630
1523.9800, -85.999
1524.0000,-210.000
1524.0200, -86.308
1524.0400, -83.932
1524.0600, -87.944
1524.0800, -87.320
1524.1000, -82.523
1524.1200, -89.114
1524.1400, -88.364
1524.1600, -89.717
1524.1800, -85.231
1524.2000,-210.000
1524.2200,-210.000
1524.2400, -89.986
1524.2600,-210.000
1524.2800, -83.554
1524.3000,-210.000
1524.3200, -85.408
1524.3400,-210.000
1524.3600,-210.000
1524.3800,-210.000
1524.4000, -93.024
1524.4200, -88.621
1524.4400, -81.750
1524.4600, -88.036
1524.4800,-210.000
1524.5000, -88.638
1524.5200,-210.000
1524.5400, -91.919
1524.5600,-210.000
1524.5800, -98.239
1524.6000, -84.515
1524.6200, -88.820
1524.6400, -84.185
1524.6600, -83.806
1524.6800,-210.000
1524.7000, -87.133
1524.7200, -86.970
1524.7400, -86.067
1524.7600,-210.000
1524.7800, -87.998
1524.8000, -89.195
1524.8200, -89.723
1524.8400, -87.836
1524.8600, -87.898
1524.8800,-210.000
1524.9000, -86.616
1524.9200, -84.076
1524.9400,-210.000
1524.9600, -83.102
1524.9800, -86.122
1525.0000, -86.348
1525.0200,-210.000
1525.0400, -82.820
1525.0600, -93.320
1525.0800, -88.467
1525.1000,-103.402
1525.1200, -99.457
1525.1400,-210.000
1525.1600, -92.612
1525.1800,-210.000
1525.2000,-210.000
1525.2200, -85.843
1525.2400,-210.000
1525.2600, -82.858
1525.2800, -84.608
1525.3000,-210.000
1525.3200,-210.000
1525.3400, -87.125
1525.3600,-210.000
1525.3800, -91.727
1525.4000, -88.792
1525.4200, -86.811
1525.4400, -89.917
1525.4600, -88.203
1525.4800, -85.712
1525.5000, -86.808
1525.5200,-210.000
1525.5400, -85.669
1525.5600, -93.579
1525.5800,-210.000
1525.6000, -86.132
1525.6200,-210.000
1525.6400, -81.407
1525.6600,-210.000
1525.6800, -82.752
1525.7000,-210.000
1525.7200,-210.000
1525.7400,-210.000
1525.7600, -98.341
1525.7800, -83.352
1525.8000,-210.000
1525.8200, -91.523
1525.8400, -84.811
1525.8600, -90.439
1525.8800,-210.000
1525.9000,-210.000
1525.9200, -92.249
1525.9400,-210.000
1525.9600, -84.098
1525.9800,-210.000
1526.0000, -84.818
1526.0200,-210.000
1526.0400,-100.265
1526.0600, -82.362
1526.0800, -91.229
1526.1000,-210.000
1526.1200,-210.000
1526.1400, -82.555
1526.1600,-210.000
1526.1800, -82.942
1526.2000,-210.000
1526.2200, -87.641
1526.2400, -85.826
1526.2600, -84.419
1526.2800,-210.000
1526.3000, -81.393
1526.3200,-210.000
1526.3400, -89.156
1526.3600, -82.382
1526.3800,-210.000
1526.4000, -85.009
1526.4200,-210.000
1526.4400,-210.000
1526.4600, -88.548
1526.4800, -93.911
1526.5000, -90.562
1526.5200, -81.350
1526.5400, -84.593
1526.5600, -86.500
1526.5800,-210.000
1526.6000, -90.189
1526.6200, -92.877
1526.6400, -95.581
1526.6600, -86.493
1526.6800,-210.000
1526.7000, -83.316
1526.7200, -89.750
1526.7400,-210.000
1526.7600,-210.000
1526.7800,-210.000
1526.8000, -81.278
1526.8200, -86.182
1526.8400,-121.638
1526.8600, -89.389
1526.8800, -85.571
1526.9000,-104.110
1526.9200, -86.121
1526.9400, -89.413
1526.9600, -88.349
1526.9800, -93.868
1527.0000,-210.000
1527.0200,-210.000
1527.0400, -82.031
1527.0600, -87.287
1527.0800, -86.775
1527.1000, -84.552
1527.1200,-210.000
1527.1400, -84.530
1527.1600, -80.828
1527.1800,-210.000
1527.2000, -82.477
1527.2200,-210.000
1527.2400,-210.000
1527.2600, -83.155
1527.2800, -84.471
1527.3000, -86.200
1527.3200,-210.000
1527.3400, -91.106
1527.3600,-210.000
1527.3800,-210.000
1527.4000, -87.770
1527.4200, -94.950
1527.4400, -83.479
1527.4600, -83.958
1527.4800, -91.306
1527.5000,-210.000
1527.5200, -89.559
1527.5400, -83.895
1527.5600, -85.254
1527.5800,-210.000
1527.6000, -86.378
1527.6200, -89.976
1527.6400, -86.760
1527.6600, -87.115
1527.6800,-210.000
1527.7000,-210.000
1527.7200, -89.150
1527.7400,-210.000
1527.7600,-210.000
1527.7800, -86.390
1527.8000, -93.054
1527.8200, -82.673
1527.8400, -86.791
1527.8600,-210.000
1527.8800, -83.897
1527.9000, -90.164
1527.9200, -86.460
1527.9400, -85.569
1527.9600,-210.000
1527.9800, -85.329
1528.0000, -86.997
1528.0200, -96.191
1528.0400, -87.254
1528.0600, -88.778
1528.0800,-210.000
1528.1000, -85.394
1528.1200, -90.173
1528.1400, -82.475
1528.1600, -89.912
1528.1800,-210.000
1528.2000, -85.350
1528.2200, -85.762
1528.2400,-210.000
1528.2600,-210.000
1528.2800, -87.836
1528.3000, -86.805
1528.3200, -84.584
1528.3400,-210.000
1528.3600, -84.962
1528.3800, -83.758
1528.4000, -91.136
1528.4200, -94.519
1528.4400, -89.077
1528.4600, -93.791
1528.4800, -88.509
1528.5000,-210.000
1528.5200, -89.175
1528.5400,-210.000
1528.5600, -83.298
1528.5800,-210.000
1528.6000, -91.734
1528.6200,-210.000
1528.6400, -92.508
1528.6600, -86.352
1528.6800, -86.545
1528.7000,-210.000
1528.7200, -82.479
1528.7400,-210.000
1528.7600, -81.932
1528.7800, -84.465
1528.8000,-210.000
1528.8200, -83.266
1528.8400, -85.110
1528.8600, -85.961
1528.8800, -86.546
1528.9000, -90.774
1528.9200, -88.229
1528.9400, -90.618
1528.9600,-210.000
1528.9800,-210.000
1529.0000, -83.081
1529.0200, -84.596
1529.0400,-210.000
1529.0600, -84.330
1529.0800, -85.303
1529.1000, -92.674
1529.1200, -90.078
1529.1400, -91.597
1529.1600, -82.774
1529.1800,-210.000
1529.2000, -82.152
1529.2200,-210.000
1529.2400, -85.969
1529.2600, -83.353
1529.2800, -86.080
1529.3000, -84.453
1529.3200,-210.000
1529.3400, -85.344
1529.3600, -88.623
1529.3800,-210.000
1529.4000, -83.174
1529.4200, -96.004
1529.4400, -87.470
1529.4600,-210.000
1529.4800, -83.065
1529.5000, -93.395
1529.5200, -98.826
1529.5400, -83.635
1529.5600, -85.397
1529.5800,-210.000
1529.6000,-210.000
1529.6200, -86.185
1529.6400, -91.574
1529.6600, -92.098
1529.6800, -83.770
1529.7000, -82.429
1529.7200, -85.805
1529.7400, -86.704
1529.7600, -93.126
1529.7800, -88.095
1529.8000,-210.000
1529.8200, -85.874
1529.8400, -86.024
1529.8600, -89.345
1529.8800, -88.163
1529.9000, -87.074
1529.9200,-210.000
1529.9400, -88.567
1529.9600,-210.000
1529.9800, -84.724
1530.0000, -82.984
1530.0200, -84.364
1530.0400,-210.000
1530.0600, -89.034
1530.0800, -79.974
1530.1000,-210.000
1530.1200,-210.000
1530.1400, -86.504
1530.1600, -94.877
1530.1800,-210.000
1530.2000, -84.204
1530.2200,-210.000
1530.2400, -91.906
1530.2600, -80.497
1530.2800,-210.000
1530.3000, -84.156
1530.3200, -96.696
1530.3400, -96.560
1530.3600, -87.203
1530.3800, -91.688
1530.4000,-210.000
1530.4200,-210.000
1530.4400,-210.000
1530.4600, -81.229
1530.4800,-210.000
1530.5000, -84.699
1530.5200, -86.440
1530.5400, -84.979
1530.5600, -89.533
1530.5800,-210.000
1530.6000,-210.000
1530.6200, -84.360
1530.6400, -89.811
1530.6600,-210.000
1530.6800, -86.956
1530.7000, -82.570
1530.7200, -85.846
1530.7400,-210.000
1530.7600,-210.000
1530.7800, -85.263
1530.8000,-210.000
1530.8200, -87.054
1530.8400, -85.956
1530.8600, -91.357
1530.8800,-210.000
1530.9000, -83.861
1530.9200,-210.000
1530.9400, -85.350
1530.9600,-210.000
1530.9800,-210.000
1531.0000, -83.465
1531.0200,-210.000
1531.0400,-210.000
1531.0600, -93.808
1531.0800,-210.000
1531.1000,-210.000
1531.1200, -88.777
1531.1400, -81.809
1531.1600,-210.000
1531.1800, -99.425
1531.2000, -83.639
1531.2200, -81.852
1531.2400,-210.000
1531.2600, -88.526
1531.2800,-210.000
1531.3000,-210.000
1531.3200, -81.447
1531.3400, -86.325
1531.3600,-210.000
1531.3800, -83.976
1531.4000, -91.247
1531.4200, -83.161
1531.4400, -87.194
1531.4600,-210.000
1531.4800,-210.000
1531.5000, -84.435
1531.5200,-110.829
1531.5400, -86.178
1531.5600,-210.000
1531.5800,-210.000
1531.6000, -83.465
1531.6200, -88.522
1531.6400,-210.000
1531.6600,-103.847
1531.6800, -85.174
1531.7000,-210.000
1531.7200, -89.685
1531.7400, -84.086
1531.7600,-210.000
1531.7800, -97.617
1531.8000,-210.000
1531.8200,-210.000
1531.8400, -84.155
1531.8600,-210.000
1531.8800,-210.000
1531.9000, -85.629
1531.9200, -86.657
1531.9400,-210.000
1531.9600,-210.000
1531.9800,-210.000
1532.0000, -88.590
1532.0200,-210.000
1532.0400, -84.649
1532.0600, -81.433
1532.0800,-210.000
1532.1000, -88.023
1532.1200, -83.668
1532.1400,-210.000
1532.1600, -83.234
1532.1800, -85.652
1532.2000, -83.260
1532.2200,-210.000
1532.2400, -84.896
1532.2600,-210.000
1532.2800, -87.673
1532.3000, -87.336
1532.3200, -87.929
1532.3400,-210.000
1532.3600, -96.134
1532.3800, -86.037
1532.4000, -96.251
1532.4200, -83.298
1532.4400, -83.625
1532.4600,-210.000
1532.4800, -90.080
1532.5000, -87.219
1532.5200, -87.852
1532.5400, -89.520
1532.5600,-210.000
1532.5800, -82.865
1532.6000, -84.764
1532.6200,-210.000
1532.6400, -88.197
1532.6600, -87.407
1532.6800, -84.045
1532.7000, -84.820
1532.7200, -95.163
1532.7400,-210.000
1532.7600, -82.989
1532.7800, -88.280
1532.8000,-210.000
1532.8200, -85.639
1532.8400,-210.000
1532.8600, -94.277
1532.8800, -86.723
1532.9000, -80.836
1532.9200, -86.819
1532.9400,-210.000
1532.9600,-210.000
1532.9800, -84.646
1533.0000, -91.600
1533.0200,-210.000
1533.0400, -86.370
1533.0600,-210.000
1533.0800, -88.992
1533.1000, -88.309
1533.1200,-210.000
1533.1400, -82.748
1533.1600, -89.399
1533.1800,-210.000
1533.2000, -98.874
1533.2200, -86.092
1533.2400,-210.000
1533.2600, -81.774
1533.2800, -84.315
1533.3000, -86.918
1533.3200,-210.000
1533.3400, -94.406
1533.3600, -87.629
1533.3800, -83.582
1533.4000, -95.390
1533.4200, -86.507
1533.4400, -92.173
1533.4600, -85.760
1533.4800,-210.000
1533.5000, -89.054
1533.5200,-210.000
1533.5400, -83.492
1533.5600, -83.583
1533.5800,-210.000
1533.6000,-210.000
1533.6200, -80.746
1533.6400,-210.000
1533.6600, -86.119
1533.6800,-210.000
1533.7000, -86.588
1533.7200, -83.726
1533.7400, -86.256
1533.7600, -83.295
1533.7800,-210.000
1533.8000,-210.000
1533.8200, -82.175
1533.8400,-210.000
1533.8600,-210.000
1533.8800,-210.000
1533.9000, -90.850
1533.9200,-103.912
1533.9400, -83.840
1533.9600, -84.061
1533.9800,-210.000
1534.0000,-210.000
1534.0200, -90.847
1534.0400, -85.151
1534.0600,-210.000
1534.0800, -81.864
1534.1000, -87.453
1534.1200,-210.000
1534.1400, -86.062
1534.1600, -90.450
1534.1800,-100.571
1534.2000, -88.861
1534.2200, -82.847
1534.2400,-210.000
1534.2600, -84.560
1534.2800,-210.000
1534.3000, -81.941
1534.3200, -81.912
1534.3400,-210.000
1534.3600, -87.803
1534.3800, -82.279
1534.4000,-210.000
1534.4200, -83.907
1534.4400,-210.000
1534.4600, -84.001
1534.4800,-210.000
1534.5000, -86.968
1534.5200, -98.845
1534.5400, -85.222
1534.5600,-210.000
1534.5800, -90.181
1534.6000, -96.573
1534.6200, -82.162
1534.6400, -98.031
1534.6600, -85.924
1534.6800,-210.000
1534.7000, -90.712
1534.7200,-210.000
1534.7400, -83.095
1534.7600,-210.000
1534.7800, -89.489
1534.8000, -89.343
1534.8200, -82.089
1534.8400,-210.000
1534.8600, -90.116
1534.8800,-210.000
1534.9000, -86.524
1534.9200, -91.747
1534.9400,-210.000
1534.9600,-210.000
1534.9800, -86.447
1535.0000,-210.000
1535.0200, -82.222
1535.0400, -82.413
1535.0600,-210.000
1535.0800, -83.384
1535.1000,-210.000
1535.1200, -85.453
1535.1400, -86.774
1535.1600,-210.000
1535.1800, -81.266
1535.2000,-210.000
1535.2200, -89.191
1535.2400, -83.800
1535.2600, -86.627
1535.2800,-105.208
1535.3000,-210.000
1535.3200,-210.000
1535.3400,-210.000
1535.3600, -88.041
1535.3800, -82.355
1535.4000, -82.179
1535.4200, -92.978
1535.4400,-210.000
1535.4600,-210.000
1535.4800, -83.451
1535.5000, -86.431
1535.5200,-210.000
1535.5400,-210.000
1535.5600, -86.991
1535.5800,-210.000
1535.6000, -82.714
1535.6200, -83.102
1535.6400,-210.000
1535.6600, -87.205
1535.6800, -83.216
1535.7000,-210.000
1535.7200, -88.825
1535.7400, -91.468
1535.7600, -97.227
1535.7800, -82.852
1535.8000,-210.000
1535.8200, -81.998
1535.8400,-210.000
1535.8600, -85.815
1535.8800,-210.000
1535.9000, -84.397
1535.9200, -82.662
1535.9400, -82.757
1535.9600,-210.000
1535.9800, -82.001
1536.0000, -84.940
1536.0200, -84.908
1536.0400, -94.873
1536.0600, -87.737
1536.0800,-210.000
1536.1000, -87.024
1536.1200, -83.678
1536.1400,-210.000
1536.1600, -84.606
1536.1800, -85.262
1536.2000, -95.537
1536.2200, -90.347
1536.2400,-210.000
1536.2600, -89.282
1536.2800, -82.139
1536.3000, -85.829
1536.3200,-210.000
1536.3400,-210.000
1536.3600,-210.000
1536.3800,-210.000
1536.4000, -85.255
1536.4200, -81.344
1536.4400,-210.000
1536.4600, -91.864
1536.4800,-210.000
1536.5000,-210.000
1536.5200,-210.000
1536.5400,-106.781
1536.5600, -82.612
1536.5800,-210.000
1536.6000, -82.328
1536.6200,-210.000
1536.6400, -88.172
1536.6600, -85.231
1536.6800, -84.778
1536.7000,-210.000
1536.7200,-210.000
1536.7400, -80.941
1536.7600, -86.063
1536.7800,-210.000
1536.8000,-210.000
1536.8200, -85.089
1536.8400, -89.371
1536.8600, -81.948
1536.8800, -91.375
1536.9000, -86.092
1536.9200,-210.000
1536.9400,-210.000
1536.9600, -89.645
1536.9800,-210.000
1537.0000,-210.000
1537.0200, -82.231
1537.0400,-210.000
1537.0600, -87.820
1537.0800, -84.068
1537.1000,-210.000
1537.1200,-210.000
1537.1400, -82.149
1537.1600,-210.000
1537.1800, -83.138
1537.2000, -85.126
1537.2200,-210.000
1537.2400, -82.758
1537.2600, -84.971
1537.2800, -92.765
1537.3000, -81.088
1537.3200, -92.563
1537.3400, -86.764
1537.3600,-210.000
1537.3800, -82.175
1537.4000, -83.604
1537.4200, -92.179
1537.4400, -88.760
1537.4600,-210.000
1537.4800, -89.404
1537.5000, -95.354
1537.5200, -84.836
1537.5400, -86.355
1537.5600, -88.862
1537.5800,-210.000
1537.6000,-210.000
1537.6200,-210.000
1537.6400,-210.000
1537.6600, -87.453
1537.6800, -81.882
1537.7000, -80.721
1537.7200,-210.000
1537.7400, -83.888
1537.7600, -90.892
1537.7800, -86.469
1537.8000,-210.000
1537.8200, -86.084
1537.8400,-210.000
1537.8600, -83.220
1537.8800, -84.887
1537.9000, -85.003
1537.9200,-210.000
1537.9400, -81.402
1537.9600,-210.000
1537.9800,-210.000
1538.0000, -93.444
1538.0200, -82.050
1538.0400, -82.875
1538.0600,-210.000
1538.0800, -83.060
1538.1000,-210.000
1538.1200, -81.851
1538.1400, -88.050
1538.1600,-210.000
1538.1800, -82.495
1538.2000, -89.081
1538.2200, -92.320
1538.2400,-210.000
1538.2600, -83.563
1538.2800, -91.122
1538.3000, -85.159
1538.3200,-210.000
1538.3400, -80.911
1538.3600,-210.000
1538.3800, -84.404
1538.4000,-210.000
1538.4200, -82.641
1538.4400,-210.000
1538.4600, -83.787
1538.4800,-108.353
1538.5000,-210.000
1538.5200,-210.000
1538.5400, -87.144
1538.5600, -85.124
1538.5800, -86.359
1538.6000,-210.000
1538.6200, -83.124
1538.6400,-210.000
1538.6600, -87.425
1538.6800, -88.032
1538.7000, -85.648
1538.7200, -83.132
1538.7400, -90.785
1538.7600,-210.000
1538.7800,-210.000
1538.8000, -88.615
1538.8200, -83.990
1538.8400, -86.192
1538.8600, -87.746
1538.8800,-210.000
1538.9000, -85.068
1538.9200, -85.712
1538.9400,-210.000
1538.9600,-210.000
1538.9800, -82.720
1539.0000, -86.127
1539.0200,-210.000
1539.0400, -84.174
1539.0600,-210.000
1539.0800,-210.000
1539.1000, -84.358
1539.1200, -87.576
1539.1400, -97.105
1539.1600, -80.733
1539.1800,-210.000
1539.2000,-210.000
1539.2200, -86.622
1539.2400, -86.531
1539.2600, -85.241
1539.2800, -88.904
1539.3000, -87.118
1539.3200,-210.000
1539.3400, -82.696
1539.3600,-210.000
1539.3800, -86.075
1539.4000, -95.301
1539.4200, -81.904
1539.4400,-210.000
1539.4600, -82.862
1539.4800,-102.601
1539.5000, -96.817
1539.5200, -85.144
1539.5400, -86.252
1539.5600, -88.204
1539.5800,-210.000
1539.6000, -83.818
1539.6200, -83.811
1539.6400, -95.051
1539.6600,-210.000
1539.6800, -87.836
1539.7000, -89.178
1539.7200, -97.977
1539.7400, -83.326
1539.7600, -95.757
1539.7800, -88.953
1539.8000,-210.000
1539.8200, -92.615
1539.8400, -82.103
1539.8600,-210.000
1539.8800, -88.201
1539.9000, -79.593
1539.9200,-210.000
1539.9400,-210.000
1539.9600, -87.743
1539.9800, -85.969
1540.0000, -97.386
1540.0200, -85.752
1540.0400, -85.276
1540.0600, -89.262
1540.0800,-210.000
1540.1000,-210.000
1540.1200,-210.000
1540.1400, -83.283
1540.1600, -90.113
1540.1800, -91.516
1540.2000, -93.685
1540.2200,-210.000
1540.2400, -86.247
1540.2600, -83.892
1540.2800, -86.426
1540.3000,-210.000
1540.3200, -92.838
1540.3400, -87.471
1540.3600,-210.000
1540.3800, -98.246
1540.4000, -85.894
1540.4200, -90.656
1540.4400, -83.774
1540.4600,-210.000
1540.4800, -82.743
1540.5000,-210.000
1540.5200,-210.000
1540.5400,-210.000
1540.5600,-210.000
1540.5800, -89.009
1540.6000, -83.898
1540.6200, -84.983
1540.6400, -84.939
1540.6600, -92.055
1540.6800, -87.187
1540.7000, -90.541
1540.7200, -83.375
1540.7400,-210.000
1540.7600, -87.223
1540.7800, -93.385
1540.8000, -85.706
1540.8200,-210.000
1540.8400, -88.023
1540.8600, -95.945
1540.8800, -87.242
1540.9000,-210.000
1540.9200, -86.538
1540.9400, -88.000
1540.9600,-210.000
1540.9800,-210.000
1541.0000, -87.664
1541.0200,-210.000
1541.0400, -85.218
1541.0600,-210.000
1541.0800, -83.383
1541.1000, -93.145
1541.1200,-210.000
1541.1400, -81.845
1541.1600, -84.066
1541.1800, -91.229
1541.2000, -82.609
1541.2200, -94.808
1541.2400,-210.000
1541.2600, -83.885
1541.2800,-210.000
1541.3000, -81.513
1541.3200, -83.790
1541.3400, -94.109
1541.3600, -83.936
1541.3800, -84.890
1541.4000, -86.647
1541.4200,-210.000
1541.4400, -83.048
1541.4600, -95.606
1541.4800, -84.626
1541.5000, -83.411
1541.5200,-210.000
1541.5400, -86.992
1541.5600, -83.861
1541.5800, -86.981
1541.6000,-210.000
1541.6200, -83.205
1541.6400, -88.513
1541.6600,-210.000
1541.6800, -92.539
1541.7000, -91.791
1541.7200, -87.601
1541.7400, -85.296
1541.7600, -84.100
1541.7800, -94.031
1541.8000, -85.605
1541.8200, -86.027
1541.8400, -91.441
1541.8600, -86.084
1541.8800, -87.508
1541.9000, -87.106
1541.9200,-210.000
1541.9400, -85.623
1541.9600, -85.857
1541.9800, -90.784
1542.0000, -84.664
1542.0200,-210.000
1542.0400, -85.804
1542.0600, -84.413
1542.0800,-210.000
1542.1000, -89.078
1542.1200, -87.201
1542.1400, -94.308
1542.1600, -89.514
1542.1800,-210.000
1542.2000,-210.000
1542.2200, -88.622
1542.2400,-210.000
1542.2600, -94.950
1542.2800,-210.000
1542.3000, -81.619
1542.3200, -83.465
1542.3400, -97.900
1542.3600,-210.000
1542.3800, -94.543
1542.4000,-210.000
1542.4200,-210.000
1542.4400, -92.749
1542.4600, -81.056
1542.4800, -86.508
1542.5000, -84.986
1542.5200,-210.000
1542.5400, -88.401
1542.5600, -91.735
1542.5800,-210.000
1542.6000, -87.846
1542.6200, -89.593
1542.6400, -97.731
1542.6600,-210.000
1542.6800, -85.332
1542.7000, -85.986
1542.7200, -84.406
1542.7400,-210.000
1542.7600,-210.000
1542.7800, -85.202
1542.8000, -85.521
1542.8200, -91.734
1542.8400, -91.577
1542.8600, -87.331
1542.8800, -90.994
1542.9000,-210.000
1542.9200,-210.000
1542.9400,-210.000
1542.9600, -82.337
1542.9800,-210.000
1543.0000,-210.000
1543.0200, -84.865
1543.0400,-210.000
1543.0600, -82.835
1543.0800,-210.000
1543.1000, -82.240
1543.1200, -83.663
1543.1400,-210.000
1543.1600, -82.965
1543.1800,-210.000
1543.2000, -89.366
1543.2200,-210.000
1543.2400,-210.000
1543.2600, -95.589
1543.2800,-210.000
1543.3000, -85.164
1543.3200,-210.000
1543.3400, -85.031
1543.3600,-210.000
1543.3800, -97.788
1543.4000, -81.710
1543.4200, -85.147
1543.4400,-210.000
1543.4600, -84.729
1543.4800, -93.134
1543.5000,-210.000
1543.5200, -84.839
1543.5400, -88.105
1543.5600, -86.372
1543.5800, -91.796
1543.6000,-210.000
1543.6200, -84.294
1543.6400, -84.864
1543.6600,-210.000
1543.6800,-210.000
1543.7000, -91.131
1543.7200, -84.130
1543.7400, -87.288
1543.7600, -84.098
1543.7800, -90.005
1543.8000,-210.000
1543.8200, -92.371
1543.8400,-210.000
1543.8600, -82.923
1543.8800, -92.176
1543.9000,-210.000
1543.9200,-210.000
1543.9400, -81.484
1543.9600,-210.000
1543.9800, -88.876
1544.0000, -84.055
1544.0200, -86.454
1544.0400, -87.257
1544.0600, -92.903
1544.0800, -89.882
1544.1000, -85.832
1544.1200,-210.000
1544.1400, -91.784
1544.1600, -91.719
1544.1800, -88.030
1544.2000,-210.000
1544.2200,-210.000
1544.2400, -82.807
1544.2600, -96.174
1544.2800, -87.555
1544.3000, -92.130
1544.3200,-210.000
1544.3400, -89.784
1544.3600,-210.000
1544.3800, -82.959
1544.4000,-210.000
1544.4200, -84.420
1544.4400, -84.790
1544.4600, -83.275
1544.4800,-210.000
1544.5000, -99.914
1544.5200,-102.482
1544.5400, -83.495
1544.5600,-210.000
1544.5800,-210.000
1544.6000,-210.000
1544.6200, -85.391
1544.6400, -81.835
1544.6600, -89.638
1544.6800, -95.966
1544.7000, -84.330
1544.7200,-210.000
1544.7400,-210.000
1544.7600, -81.871
1544.7800, -83.983
1544.8000, -84.769
1544.8200,-210.000
1544.8400, -81.827
1544.8600, -86.049
1544.8800, -86.022
1544.9000, -87.380
1544.9200,-210.000
1544.9400, -98.213
1544.9600,-210.000
1544.9800, -91.517
1545.0000, -84.249
1545.0200, -82.824
1545.0400,-210.000
1545.0600, -81.376
1545.0800,-210.000
1545.1000,-210.000
1545.1200, -84.071
1545.1400, -83.387
1545.1600,-210.000
1545.1800, -83.838
1545.2000,-210.000
1545.2200,-210.000
1545.2400, -91.502
1545.2600, -81.551
1545.2800, -85.035
1545.3000, -85.371
1545.3200, -84.574
1545.3400,-210.000
1545.3600, -87.313
1545.3800, -86.405
1545.4000,-210.000
1545.4200,-210.000
1545.4400,-210.000
1545.4600, -82.637
1545.4800, -91.888
1545.5000, -84.918
1545.5200, -96.234
1545.5400, -90.968
1545.5600, -85.864
1545.5800, -82.439
1545.6000,-210.000
1545.6200,-210.000
1545.6400, -82.031
1545.6600, -86.032
1545.6800, -88.611
1545.7000, -97.182
1545.7200,-100.087
1545.7400,-210.000
1545.7600,-210.000
1545.7800,-210.000
1545.8000, -90.835
1545.8200, -84.875
1545.8400, -87.665
1545.8600, -82.626
1545.8800,-210.000
1545.9000, -82.846
1545.9200,-210.000
1545.9400, -86.610
1545.9600, -82.040
1545.9800,-210.000
1546.0000,-210.000
1546.0200, -83.891
1546.0400,-210.000
1546.0600, -82.044
1546.0800, -86.469
1546.1000, -86.969
1546.1200,-210.000
1546.1400, -82.831
1546.1600, -92.081
1546.1800,-210.000
1546.2000, -82.630
1546.2200, -89.015
1546.2400, -83.839
1546.2600,-210.000
1546.2800, -90.994
1546.3000, -88.162
1546.3200, -86.361
1546.3400,-210.000
1546.3600, -88.386
1546.3800, -94.548
1546.4000, -85.505
1546.4200, -84.692
1546.4400, -83.727
1546.4600,-210.000
1546.4800, -90.216
1546.5000,-210.000
1546.5200, -87.333
1546.5400, -83.817
1546.5600,-210.000
1546.5800, -92.323
1546.6000,-210.000
1546.6200, -81.715
1546.6400,-210.000
1546.6600, -82.888
1546.6800, -88.895
1546.7000,-210.000
1546.7200, -91.691
1546.7400,-210.000
1546.7600,-210.000
1546.7800, -86.961
1546.8000,-210.000
1546.8200,-210.000
1546.8400, -82.139
1546.8600, -85.211
1546.8800,-210.000
1546.9000, -85.682
1546.9200, -86.090
1546.9400,-210.000
1546.9600,-210.000
1546.9800, -82.661
1547.0000, -84.337
1547.0200, -90.979
1547.0400,-210.000
1547.0600, -83.699
1547.0800,-210.000
1547.1000, -84.854
1547.1200, -84.607
1547.1400,-210.000
1547.1600, -89.981
1547.1800,-210.000
1547.2000, -90.683
1547.2200, -83.383
1547.2400, -84.949
1547.2600, -93.938
1547.2800, -88.897
1547.3000, -87.813
1547.3200,-210.000
1547.3400, -82.477
1547.3600,-210.000
1547.3800, -83.609
1547.4000,-210.000
1547.4200,-210.000
1547.4400,-210.000
1547.4600, -84.084
1547.4800,-210.000
1547.5000, -87.707
1547.5200,-210.000
1547.5400,-210.000
1547.5600,-210.000
1547.5800,-210.000
1547.6000,-210.000
1547.6200, -83.259
1547.6400,-210.000
1547.6600, -93.988
1547.6800, -82.873
1547.7000,-210.000
1547.7200, -83.604
1547.7400, -84.891
1547.7600,-210.000
1547.7800,-210.000
1547.8000, -93.064
1547.8200, -82.172
1547.8400,-210.000
1547.8600, -87.682
1547.8800, -88.905
1547.9000, -87.798
1547.9200,-210.000
1547.9400, -84.749
1547.9600, -82.987
1547.9800,-210.000
1548.0000,-210.000
1548.0200, -84.562
1548.0400, -98.867
1548.0600,-210.000
1548.0800,-210.000
1548.1000, -83.609
1548.1200, -85.404
1548.1400, -84.083
1548.1600,-210.000
1548.1800,-210.000
1548.2000,-210.000
1548.2200, -83.814
1548.2400, -84.299
1548.2600, -86.074
1548.2800, -87.020
1548.3000, -89.117
1548.3200,-210.000
1548.3400, -87.310
1548.3600,-210.000
1548.3800, -84.422
1548.4000, -86.054
1548.4200, -99.175
1548.4400, -86.404
1548.4600,-210.000
1548.4800,-210.000
1548.5000, -89.737
1548.5200, -85.843
1548.5400,-210.000
1548.5600, -83.559
1548.5800,-210.000
1548.6000, -87.166
1548.6200, -92.734
1548.6400, -86.338
1548.6600,-210.000
1548.6800, -91.448
1548.7000,-210.000
1548.7200, -87.804
1548.7400, -86.269
1548.7600,-210.000
1548.7800, -92.197
1548.8000, -83.152
1548.8200, -94.080
1548.8400, -86.770
1548.8600,-210.000
1548.8800,-210.000
1548.9000,-210.000
1548.9200, -83.641
1548.9400, -85.552
1548.9600,-210.000
1548.9800,-210.000
1549.0000, -84.514
1549.0200,-210.000
1549.0400, -81.978
1549.0600,-210.000
1549.0800,-102.349
1549.1000, -83.043
1549.1200,-210.000
1549.1400, -84.003
1549.1600, -82.814
1549.1800, -86.205
1549.2000,-210.000
1549.2200, -83.582
1549.2400, -85.814
1549.2600,-210.000
1549.2800,-210.000
1549.3000, -85.259
1549.3200, -93.495
1549.3400,-210.000
1549.3600,-106.975
1549.3800, -80.979
1549.4000, -81.631
1549.4200,-210.000
1549.4400,-210.000
1549.4600, -90.884
1549.4800, -93.615
1549.5000, -82.512
1549.5200,-210.000
1549.5400, -85.112
1549.5600,-210.000
1549.5800, -88.311
1549.6000, -81.047
1549.6200, -89.226
1549.6400,-210.000
1549.6600, -82.609
1549.6800,-210.000
1549.7000, -81.777
1549.7200, -93.316
1549.7400,-210.000
1549.7600,-210.000
1549.7800,-210.000
1549.8000, -84.504
1549.8200, -88.303
1549.8400,-210.000
1549.8600, -88.312
1549.8800, -86.165
1549.9000,-210.000
1549.9200, -94.106
1549.9400,-100.150
1549.9600,-210.000
1549.9800, -88.984
1550.0000, -84.465
1550.0200, -85.839
1550.0400,-210.000
1550.0600, -84.849
1550.0800, -86.528
1550.1000, -83.314
1550.1200,-210.000
1550.1400, -99.736
1550.1600,-210.000
1550.1800, -83.395
1550.2000, -86.453
1550.2200, -92.458
1550.2400, -84.103
1550.2600,-210.000
1550.2800,-210.000
1550.3000, -82.960
1550.3200,-210.000
1550.3400, -89.631
1550.3600, -86.930
1550.3800, -93.794
1550.4000,-210.000
1550.4200, -84.180
1550.4400, -85.471
1550.4600, -84.837
1550.4800,-210.000
1550.5000, -87.309
1550.5200,-210.000
1550.5400, -91.170
1550.5600,-210.000
1550.5800, -83.324
1550.6000, -90.692
1550.6200,-210.000
1550.6400, -82.474
1550.6600, -85.709
1550.6800, -83.633
1550.7000,-210.000
1550.7200,-210.000
1550.7400, -83.680
1550.7600,-210.000
1550.7800, -80.282
1550.8000, -83.504
1550.8200, -91.490
1550.8400, -85.651
1550.8600, -90.117
1550.8800, -84.937
1550.9000, -88.963
1550.9200, -92.501
1550.9400,-210.000
1550.9600, -87.108
1550.9800,-210.000
1551.0000, -85.234
1551.0200, -91.438
1551.0400, -80.748
1551.0600, -90.216
1551.0800, -92.297
1551.1000, -91.645
1551.1200, -89.641
1551.1400,-210.000
1551.1600, -81.714
1551.1800, -86.882
1551.2000,-210.000
1551.2200,-210.000
1551.2400, -84.540
1551.2600, -97.123
1551.2800, -89.898
1551.3000, -87.724
1551.3200, -86.761
1551.3400,-210.000
1551.3600, -89.882
1551.3800, -88.284
1551.4000,-102.158
1551.4200, -89.290
1551.4400, -85.597
1551.4600,-210.000
1551.4800, -96.640
1551.5000, -83.184
1551.5200,-210.000
1551.5400, -82.336
1551.5600,-210.000
1551.5800, -84.869
1551.6000, -82.460
1551.6200,-210.000
1551.6400, -90.144
1551.6600, -86.822
1551.6800, -86.149
1551.7000, -85.689
1551.7200,-210.000
1551.7400, -85.686
1551.7600, -95.500
1551.7800, -85.751
1551.8000, -89.596
1551.8200, -85.121
1551.8400, -84.570
1551.8600, -84.326
1551.8800, -92.342
1551.9000,-210.000
1551.9200, -88.359
1551.9400, -88.967
1551.9600, -83.630
1551.9800, -83.637
1552.0000, -93.679
1552.0200,-210.000
1552.0400, -83.440
1552.0600, -82.392
1552.0800,-210.000
1552.1000, -81.674
1552.1200, -87.254
1552.1400,-210.000
1552.1600, -87.475
1552.1800, -84.832
1552.2000,-210.000
1552.2200, -82.269
1552.2400,-210.000
1552.2600,-210.000
1552.2800, -86.397
1552.3000,-210.000
1552.3200,-210.000
1552.3400, -83.967
1552.3600,-210.000
1552.3800, -81.774
1552.4000, -95.313
1552.4200, -82.754
1552.4400,-210.000
1552.4600, -83.767
1552.4800, -83.173
1552.5000, -84.457
1552.5200, -86.092
1552.5400,-100.704
1552.5600, -86.011
1552.5800,-210.000
1552.6000,-210.000
1552.6200, -84.314
1552.6400, -90.880
1552.6600, -84.646
1552.6800, -83.866
1552.7000,-210.000
1552.7200, -86.138
1552.7400,-210.000
1552.7600, -88.080
1552.7800, -87.242
1552.8000, -83.605
1552.8200,-210.000
1552.8400, -85.117
1552.8600, -83.659
1552.8800, -94.400
1552.9000, -88.768
1552.9200, -96.668
1552.9400,-210.000
1552.9600, -83.750
1552.9800, -93.122
1553.0000, -90.597
1553.0200,-210.000
1553.0400, -82.085
1553.0600, -92.208
1553.0800, -87.054
1553.1000,-210.000
1553.1200, -90.084
1553.1400, -84.149
1553.1600, -84.353
1553.1800, -88.919
1553.2000, -97.529
1553.2200, -84.425
1553.2400, -86.462
1553.2600,-210.000
1553.2800, -87.004
1553.3000,-115.995
1553.3200, -83.960
1553.3400, -92.964
1553.3600, -91.480
1553.3800, -87.000
1553.4000, -87.022
1553.4200,-210.000
1553.4400, -85.903
1553.4600,-210.000
1553.4800, -91.384
1553.5000, -91.790
1553.5200,-210.000
1553.5400,-210.000
1553.5600, -82.750
1553.5800, -90.741
1553.6000, -92.816
1553.6200, -94.993
1553.6400, -91.744
1553.6600, -93.818
1553.6800,-210.000
1553.7000, -84.605
1553.7200, -85.179
1553.7400, -87.945
1553.7600,-210.000
1553.7800, -92.349
1553.8000, -86.550
1553.8200,-210.000
1553.8400, -89.044
1553.8600, -89.109
1553.8800,-210.000
1553.9000, -82.137
1553.9200, -81.987
1553.9400, -85.406
1553.9600,-210.000
1553.9800, -92.533
1554.0000, -91.199
1554.0200,-210.000
1554.0400, -96.922
1554.0600,-210.000
1554.0800, -86.428
1554.1000, -86.009
1554.1200, -85.458
1554.1400,-210.000
1554.1600, -88.601
1554.1800, -89.915
1554.2000,-210.000
1554.2200, -81.424
1554.2400, -92.072
1554.2600, -85.947
1554.2800,-210.000
1554.3000, -83.558
1554.3200, -90.120
1554.3400, -83.819
1554.3600,-210.000
1554.3800, -87.377
1554.4000, -83.768
1554.4200,-210.000
1554.4400, -87.605
1554.4600, -92.227
1554.4800,-210.000
1554.5000, -84.970
1554.5200, -86.580
1554.5400, -94.783
1554.5600,-210.000
1554.5800, -85.961
1554.6000, -85.609
1554.6200, -83.199
1554.6400, -88.021
1554.6600,-114.269
1554.6800, -86.907
1554.7000,-210.000
1554.7200, -80.370
1554.7400,-210.000
1554.7600, -86.792
1554.7800, -93.642
1554.8000, -84.724
1554.8200,-210.000
1554.8400, -86.101
1554.8600,-210.000
1554.8800, -81.005
1554.9000,-210.000
1554.9200, -81.560
1554.9400, -87.959
1554.9600,-210.000
1554.9800,-210.000
1555.0000, -83.980
1555.0200,-210.000
1555.0400,-210.000
1555.0600, -92.275
1555.0800,-210.000
1555.1000, -94.068
1555.1200, -89.242
1555.1400, -83.455
1555.1600,-210.000
1555.1800, -84.527
1555.2000, -92.415
1555.2200, -88.097
1555.2400, -86.905
1555.2600,-210.000
1555.2800,-210.000
1555.3000, -83.202
1555.3200, -86.381
1555.3400, -91.655
1555.3600, -89.979
1555.3800, -86.702
1555.4000, -85.680
1555.4200, -87.740
1555.4400, -85.843
1555.4600, -87.261
1555.4800,-210.000
1555.5000, -84.030
1555.5200,-210.000
1555.5400, -99.499
1555.5600, -87.244
1555.5800, -84.745
1555.6000,-210.000
1555.6200, -84.969
1555.6400,-100.757
1555.6600, -92.534
1555.6800, -86.588
1555.7000, -84.009
1555.7200,-210.000
1555.7400, -83.331
1555.7600,-210.000
1555.7800,-210.000
1555.8000, -82.841
1555.8200,-210.000
1555.8400, -88.327
1555.8600, -85.205
1555.8800,-210.000
1555.9000, -88.887
1555.9200, -84.506
1555.9400, -84.071
1555.9600, -86.053
1555.9800, -91.362
1556.0000, -88.379
1556.0200, -86.252
1556.0400,-210.000
1556.0600, -82.417
1556.0800,-210.000
1556.1000,-210.000
1556.1200, -81.346
1556.1400,-210.000
1556.1600, -82.477
1556.1800, -99.819
1556.2000, -84.892
1556.2200, -87.674
1556.2400,-103.492
1556.2600, -84.997
1556.2800,-210.000
1556.3000, -84.468
1556.3200, -98.880
1556.3400, -94.390
1556.3600, -90.644
1556.3800,-210.000
1556.4000,-210.000
1556.4200, -84.493
1556.4400,-210.000
1556.4600, -85.139
1556.4800, -85.077
1556.5000, -84.011
1556.5200, -88.087
1556.5400,-210.000
1556.5600, -83.558
1556.5800,-210.000
1556.6000, -84.561
1556.6200, -82.922
1556.6400, -86.553
1556.6600,-210.000
1556.6800,-210.000
1556.7000, -88.729
1556.7200, -89.599
1556.7400, -84.547
1556.7600,-210.000
1556.7800,-210.000
1556.8000, -85.382
1556.8200, -89.777
1556.8400,-210.000
1556.8600, -88.721
1556.8800, -82.122
1556.9000, -85.169
1556.9200,-210.000
1556.9400,-210.000
1556.9600,-210.000
1556.9800, -82.642
1557.0000, -83.649
1557.0200, -87.969
1557.0400, -91.500
1557.0600, -88.226
1557.0800, -83.704
1557.1000, -89.631
1557.1200,-210.000
1557.1400,-210.000
1557.1600, -84.459
1557.1800, -90.760
1557.2000,-210.000
1557.2200,-111.995
1557.2400,-210.000
1557.2600, -82.476
1557.2800, -88.011
1557.3000,-210.000
1557.3200,-210.000
1557.3400, -83.275
1557.3600, -87.026
1557.3800, -81.718
1557.4000, -87.141
1557.4200, -83.902
1557.4400,-210.000
1557.4600, -86.252
1557.4800, -95.268
1557.5000,-210.000
1557.5200, -88.913
1557.5400, -97.411
1557.5600, -83.961
1557.5800,-104.666
1557.6000,-210.000
1557.6200,-210.000
1557.6400, -82.341
1557.6600, -92.284
1557.6800, -83.111
1557.7000, -88.212
1557.7200,-210.000
1557.7400, -86.240
1557.7600,-210.000
1557.7800, -88.922
1557.8000, -82.979
1557.8200, -85.777
1557.8400, -85.393
1557.8600, -83.448
1557.8800,-210.000
1557.9000, -82.214
1557.9200, -87.056
1557.9400, -88.290
1557.9600,-210.000
1557.9800,-210.000
1558.0000, -84.947
1558.0200, -84.764
1558.0400, -88.228
1558.0600, -88.196
1558.0800, -92.294
1558.1000, -83.592
1558.1200,-210.000
1558.1400,-210.000
1558.1600, -84.280
1558.1800, -87.508
1558.2000, -84.968
1558.2200,-210.000
1558.2400,-210.000
1558.2600, -87.719
1558.2800, -87.678
1558.3000,-210.000
1558.3200, -81.563
1558.3400,-210.000
1558.3600,-210.000
1558.3800, -86.317
1558.4000,-114.498
1558.4200,-210.000
1558.4400, -82.327
1558.4600, -84.850
1558.4800,-210.000
1558.5000, -83.387
1558.5200,-210.000
1558.5400, -89.986
1558.5600,-210.000
1558.5800, -87.119
1558.6000, -88.525
1558.6200, -86.784
1558.6400, -83.972
1558.6600, -83.682
1558.6800, -90.460
1558.7000,-210.000
1558.7200,-210.000
1558.7400,-210.000
1558.7600, -85.727
1558.7800, -90.230
1558.8000, -85.012
1558.8200, -86.977
1558.8400,-210.000
1558.8600, -83.086
1558.8800,-210.000
1558.9000, -88.275
1558.9200,-101.145
1558.9400,-210.000
1558.9600, -84.585
1558.9800, -89.533
1559.0000, -84.716
1559.0200,-101.788
1559.0400,-210.000
1559.0600, -85.527
1559.0800, -83.016
1559.1000,-210.000
1559.1200, -94.302
1559.1400,-102.366
1559.1600,-210.000
1559.1800, -83.233
1559.2000, -88.607
1559.2200,-210.000
1559.2400, -89.533
1559.2600, -85.523
1559.2800, -88.956
1559.3000, -90.253
1559.3200, -90.280
1559.3400, -87.083
1559.3600,-210.000
1559.3800,-210.000
1559.4000, -83.105
1559.4200,-210.000
1559.4400, -85.294
1559.4600,-210.000
1559.4800, -88.338
1559.5000, -85.653
1559.5200, -85.472
1559.5400,-117.645
1559.5600, -80.755
1559.5800,-210.000
1559.6000, -90.392
1559.6200, -81.908
1559.6400,-210.000
1559.6600, -83.843
1559.6800,-210.000
1559.7000, -88.167
1559.7200, -93.407
1559.7400, -85.312
1559.7600, -87.114
1559.7800,-108.451
1559.8000, -81.780
1559.8200,-210.000
1559.8400, -91.999
1559.8600, -87.768
1559.8800, -96.531
1559.9000, -90.902
1559.9200,-210.000
1559.9400, -89.033
1559.9600, -91.106
1559.9800,-210.000
1560.0000, -84.573
1560.0200,-210.000
1560.0400, -87.363
1560.0600, -92.849
1560.0800, -84.977
1560.1000,-210.000
1560.1200, -86.157
1560.1400, -87.648
1560.1600, -87.420
1560.1800, -89.666
1560.2000, -85.302
1560.2200,-210.000
1560.2400, -85.959
1560.2600, -85.615
1560.2800, -86.747
1560.3000, -86.311
1560.3200,-210.000
1560.3400,-210.000
1560.3600, -85.423
1560.3800,-210.000
1560.4000, -85.805
1560.4200, -96.809
1560.4400, -83.845
1560.4600, -84.952
1560.4800, -90.116
1560.5000,-210.000
1560.5200, -87.749
1560.5400,-210.000
1560.5600, -87.223
1560.5800, -88.589
1560.6000, -93.851
1560.6200, -84.668
1560.6400,-210.000
1560.6600,-210.000
1560.6800, -81.929
1560.7000, -84.013
1560.7200, -89.810
1560.7400,-210.000
1560.7600,-210.000
1560.7800, -85.007
1560.8000, -86.529
1560.8200, -86.958
1560.8400,-210.000
1560.8600,-210.000
1560.8800, -87.535
1560.9000, -84.175
1560.9200, -97.589
1560.9400,-210.000
1560.9600, -85.399
1560.9800, -95.616
1561.0000,-210.000
1561.0200, -83.024
1561.0400, -87.613
1561.0600,-210.000
1561.0800, -92.897
1561.1000, -97.317
1561.1200, -82.887
1561.1400, -88.083
1561.1600, -97.181
1561.1800,-210.000
1561.2000, -86.250
1561.2200, -88.030
1561.2400,-210.000
1561.2600, -85.305
1561.2800, -84.880
1561.3000, -92.234
1561.3200,-210.000
1561.3400,-210.000
1561.3600, -87.489
1561.3800, -85.614
1561.4000, -87.158
1561.4200, -86.075
1561.4400, -94.928
1561.4600, -90.105
1561.4800, -85.022
1561.5000, -86.439
1561.5200, -84.976
1561.5400, -97.887
1561.5600,-210.000
1561.5800, -85.509
1561.6000, -85.482
1561.6200, -87.646
1561.6400, -83.846
1561.6600, -84.906
1561.6800, -85.414
1561.7000,-210.000
1561.7200, -83.809
1561.7400,-210.000
1561.7600, -85.970
1561.7800, -85.875
1561.8000,-210.000
1561.8200, -92.175
1561.8400, -84.605
1561.8600, -92.015
1561.8800, -89.546
1561.9000,-210.000
1561.9200, -84.969
1561.9400,-210.000
1561.9600,-210.000
1561.9800, -86.042
1562.0000,-210.000
1562.0200, -86.532
1562.0400, -94.129
1562.0600, -87.522
1562.0800,-210.000
1562.1000, -86.261
1562.1200, -84.149
1562.1400, -89.440
1562.1600, -98.134
1562.1800, -84.931
1562.2000, -88.225
1562.2200, -86.429
1562.2400, -84.269
1562.2600, -86.794
1562.2800, -89.446
1562.3000,-210.000
1562.3200, -84.386
1562.3400, -88.082
1562.3600, -87.965
1562.3800,-210.000
1562.4000,-210.000
1562.4200, -85.965
1562.4400, -84.498
1562.4600, -85.432
1562.4800,-210.000
1562.5000,-210.000
1562.5200, -93.137
1562.5400,-210.000
1562.5600,-210.000
1562.5800, -85.233
1562.6000, -84.757
1562.6200, -84.404
1562.6400, -83.305
1562.6600, -84.411
1562.6800, -83.193
1562.7000, -86.830
1562.7200, -88.199
1562.7400,-210.000
1562.7600, -93.010
1562.7800, -85.573
1562.8000,-210.000
1562.8200, -81.355
1562.8400, -83.344
1562.8600, -94.316
1562.8800, -92.325
1562.9000, -87.807
1562.9200,-210.000
1562.9400, -83.279
1562.9600, -88.451
1562.9800,-210.000
1563.0000,-210.000
1563.0200, -88.385
1563.0400, -81.774
1563.0600,-210.000
1563.0800,-210.000
1563.1000, -83.050
1563.1200,-210.000
1563.1400, -87.601
1563.1600,-210.000
1563.1800, -90.610
1563.2000, -84.373
1563.2200, -83.372
1563.2400, -87.967
1563.2600, -85.944
1563.2800, -92.860
1563.3000, -83.801
1563.3200, -88.038
1563.3400, -91.640
1563.3600,-210.000
1563.3800, -94.549
1563.4000, -88.158
1563.4200, -88.876
1563.4400, -84.350
1563.4600, -82.795
1563.4800, -84.803
1563.5000,-210.000
1563.5200, -89.119
1563.5400, -85.385
1563.5600, -86.147
1563.5800, -87.785
1563.6000,-210.000
1563.6200,-210.000
1563.6400, -85.256
1563.6600, -98.891
1563.6800, -91.079
1563.7000, -98.788
1563.7200, -85.481
1563.7400,-210.000
1563.7600,-210.000
1563.7800, -83.986
1563.8000, -80.704
1563.8200, -89.455
1563.8400, -84.213
1563.8600,-210.000
1563.8800, -86.006
1563.9000, -85.830
1563.9200, -87.678
1563.9400,-210.000
1563.9600, -84.961
1563.9800, -81.457
1564.0000,-210.000
1564.0200, -83.097
1564.0400, -91.519
1564.0600, -92.371
1564.0800, -81.712
1564.1000,-210.000
1564.1200, -86.279
1564.1400, -84.019
1564.1600, -80.689
1564.1800,-210.000
1564.2000, -81.906
1564.2200,-210.000
1564.2400, -84.328
1564.2600, -87.738
1564.2800, -86.639
1564.3000, -84.334
1564.3200, -86.141
1564.3400,-210.000
1564.3600, -80.006
1564.3800,-210.000
1564.4000, -83.584
1564.4200, -92.227
1564.4400,-210.000
1564.4600, -84.957
1564.4800, -90.115
1564.5000,-210.000
1564.5200, -85.666
1564.5400, -82.658
1564.5600, -85.546
1564.5800,-210.000
1564.6000,-210.000
1564.6200,-210.000
1564.6400, -86.107
1564.6600,-210.000
1564.6800, -80.923
1564.7000,-210.000
1564.7200, -82.680
1564.7400,-210.000
1564.7600, -83.200
1564.7800,-210.000
1564.8000, -83.481
1564.8200, -83.637
1564.8400, -85.428
1564.8600,-210.000
1564.8800, -84.654
1564.9000,-210.000
1564.9200, -94.764
1564.9400, -83.852
1564.9600,-210.000
1564.9800,-210.000
1565.0000, -83.882
1565.0200, -89.997
1565.0400,-210.000
1565.0600, -91.973
1565.0800, -82.820
1565.1000,-210.000
1565.1200, -85.965
1565.1400, -87.576
1565.1600, -87.072
1565.1800, -88.309
1565.2000,-210.000
1565.2200, -88.641
1565.2400,-210.000
1565.2600, -82.192
1565.2800, -83.805
1565.3000,-210.000
1565.3200,-210.000
1565.3400, -84.977
1565.3600, -84.547
1565.3800,-105.733
1565.4000, -88.763
1565.4200, -80.945
1565.4400, -85.809
1565.4600,-210.000
1565.4800, -85.128
1565.5000,-210.000
1565.5200, -82.067
1565.5400, -89.092
1565.5600, -83.394
1565.5800,-210.000
1565.6000, -82.454
1565.6200, -86.381
1565.6400,-210.000
1565.6600, -95.007
1565.6800, -86.357
1565.7000,-210.000
1565.7200, -83.386
1565.7400, -84.160
1565.7600,-210.000
1565.7800, -98.265
1565.8000, -85.215
1565.8200, -86.643
1565.8400,-210.000
1565.8600, -84.319
1565.8800, -82.985
1565.9000,-210.000
1565.9200, -85.302
1565.9400, -84.424
1565.9600,-210.000
1565.9800, -92.668
1566.0000,-210.000
1566.0200, -89.355
1566.0400, -85.093
1566.0600,-210.000
1566.0800, -82.508
1566.1000, -85.429
1566.1200, -83.492
1566.1400, -85.960
1566.1600, -95.228
1566.1800, -93.287
1566.2000,-210.000
1566.2200,-210.000
1566.2400, -81.769
1566.2600, -85.967
1566.2800,-210.000
1566.3000, -85.038
1566.3200,-113.562
1566.3400, -86.127
1566.3600,-210.000
1566.3800, -79.506
1566.4000,-210.000
1566.4200,-101.110
1566.4400, -83.449
1566.4600,-210.000
1566.4800,-210.000
1566.5000, -85.992
1566.5200,-210.000
1566.5400, -86.314
1566.5600, -92.045
1566.5800,-210.000
1566.6000, -85.706
1566.6200, -85.323
1566.6400, -88.439
1566.6600, -85.756
1566.6800, -85.760
1566.7000, -92.832
1566.7200, -84.311
1566.7400, -84.538
1566.7600,-210.000
1566.7800, -80.271
1566.8000, -92.127
1566.8200, -91.997
1566.8400, -93.398
1566.8600, -85.352
1566.8800,-210.000
1566.9000, -84.867
1566.9200, -86.171
1566.9400,-210.000
1566.9600, -84.877
1566.9800, -87.358
1567.0000, -87.002
1567.0200, -90.255
1567.0400,-210.000
1567.0600, -87.214
1567.0800, -96.445
1567.1000,-210.000
1567.1200,-210.000
1567.1400, -82.080
1567.1600,-210.000
1567.1800,-210.000
1567.2000, -90.063
1567.2200, -86.730
1567.2400, -84.821
1567.2600, -85.431
1567.2800, -89.745
1567.3000, -86.739
1567.3200, -84.911
1567.3400, -83.557
1567.3600,-210.000
1567.3800, -84.185
1567.4000,-210.000
1567.4200,-210.000
1567.4400, -85.438
1567.4600, -89.904
1567.4800,-210.000
1567.5000, -80.178
1567.5200,-210.000
1567.5400, -83.123
1567.5600, -86.884
1567.5800, -84.012
1567.6000, -97.378
1567.6200, -84.263
1567.6400,-210.000
1567.6600, -87.816
1567.6800, -90.100
1567.7000, -94.218
1567.7200, -86.710
1567.7400,-210.000
1567.7600, -82.670
1567.7800, -85.098
1567.8000,-210.000
1567.8200, -84.497
1567.8400,-210.000
1567.8600, -84.904
1567.8800,-210.000
1567.9000, -85.788
1567.9200, -86.565
1567.9400, -88.502
1567.9600,-210.000
1567.9800, -83.090
1568.0000, -89.829
1568.0200, -86.332
1568.0400, -86.910
1568.0600,-210.000
1568.0800, -84.562
1568.1000, -88.728
1568.1200,-210.000
1568.1400, -85.465
1568.1600, -88.782
1568.1800, -87.185
1568.2000, -99.050
1568.2200, -89.055
1568.2400, -90.665
1568.2600, -83.891
1568.2800, -86.122
1568.3000,-210.000
1568.3200, -83.093
1568.3400, -84.074
1568.3600,-210.000
1568.3800, -84.640
1568.4000,-210.000
1568.4200,-210.000
1568.4400, -80.602
1568.4600,-210.000
1568.4800, -83.109
1568.5000, -81.169
1568.5200,-210.000
1568.5400, -91.920
1568.5600,-210.000
1568.5800,-210.000
1568.6000, -81.716
1568.6200,-210.000
1568.6400,-210.000
1568.6600, -82.734
1568.6800, -87.709
1568.7000,-210.000
1568.7200,-210.000
1568.7400, -82.220
1568.7600, -80.863
1568.7800, -85.007
1568.8000, -94.491
1568.8200,-210.000
1568.8400, -83.962
1568.8600, -80.994
1568.8800,-210.000
1568.9000, -96.322
1568.9200, -82.407
1568.9400,-210.000
1568.9600, -84.693
1568.9800, -87.639
1569.0000,-210.000
1569.0200, -88.055
1569.0400, -86.572
1569.0600,-210.000
1569.0800, -88.840
1569.1000,-210.000
1569.1200, -81.477
1569.1400, -83.160
1569.1600, -88.599
1569.1800, -87.076
1569.2000,-210.000
1569.2200,-210.000
1569.2400, -88.314
1569.2600,-210.000
1569.2800, -84.926
1569.3000, -80.921
1569.3200, -93.455
1569.3400,-210.000
1569.3600, -90.158
1569.3800, -85.841
1569.4000,-210.000
1569.4200, -84.158
1569.4400, -84.603
1569.4600, -85.534
1569.4800, -85.424
1569.5000,-210.000
1569.5200,-210.000
1569.5400, -80.113
1569.5600, -94.069
1569.5800, -88.012
1569.6000,-210.000
1569.6200,-210.000
1569.6400, -88.099
1569.6600,-210.000
1569.6800,-210.000
1569.7000, -90.448
1569.7200, -83.652
1569.7400, -82.694
1569.7600, -87.507
1569.7800, -87.991
1569.8000,-210.000
1569.8200,-210.000
1569.8400, -89.013
1569.8600, -84.780
1569.8800, -84.386
1569.9000,-210.000
1569.9200, -84.955
1569.9400, -87.607
1569.9600,-210.000
1569.9800,-210.000
1570.0000,-210.000
1570.0200, -85.035
1570.0400, -95.714
1570.0600, -88.526
1570.0800, -86.086
1570.1000, -87.821
1570.1200, -83.440
1570.1400, -85.437
1570.1600, -88.245
1570.1800, -91.685
1570.2000,-210.000
1570.2200, -82.097
1570.2400, -88.885
1570.2600, -85.768
1570.2800, -84.655
1570.3000,-210.000
1570.3200, -87.655
1570.3400, -81.304
1570.3600, -84.260
1570.3800,-210.000
1570.4000, -89.300
1570.4200, -90.696
1570.4400, -89.585
1570.4600, -97.989
1570.4800, -87.488
1570.5000, -85.679
1570.5200, -92.986
1570.5400, -91.379
1570.5600,-210.000
1570.5800, -85.683
1570.6000, -83.600
1570.6200,-210.000
1570.6400, -81.501
1570.6600, -84.032
1570.6800,-210.000
1570.7000, -87.794
1570.7200, -92.255
1570.7400, -84.082
1570.7600, -83.140
1570.7800, -90.783
1570.8000, -86.569
1570.8200, -86.290
1570.8400,-210.000
1570.8600, -84.274
1570.8800,-210.000
1570.9000, -88.567
1570.9200, -88.456
1570.9400,-210.000
1570.9600,-210.000
1570.9800, -84.329
1571.0000, -92.527
1571.0200, -85.619
1571.0400, -95.728
1571.0600,-210.000
1571.0800,-210.000
1571.1000, -80.270
1571.1200,-210.000
1571.1400,-210.000
1571.1600,-210.000
1571.1800, -86.083
1571.2000, -86.192
1571.2200, -84.984
1571.2400, -87.310
1571.2600,-106.959
1571.2800,-210.000
1571.3000, -88.144
1571.3200, -92.487
1571.3400, -89.711
1571.3600, -87.017
1571.3800,-210.000
1571.4000, -88.030
1571.4200,-210.000
1571.4400, -83.429
1571.4600, -94.911
1571.4800,-210.000
1571.5000, -87.655
1571.5200,-210.000
1571.5400, -84.066
1571.5600, -84.275
1571.5800, -91.696
1571.6000, -83.443
1571.6200, -84.614
1571.6400, -84.740
1571.6600, -88.591
1571.6800, -86.702
1571.7000,-210.000
1571.7200, -86.012
1571.7400, -93.248
1571.7600, -86.839
1571.7800, -85.480
1571.8000, -84.627
1571.8200, -92.498
1571.8400,-210.000
1571.8600,-210.000
1571.8800, -98.951
1571.9000,-210.000
1571.9200, -80.360
1571.9400, -85.996
1571.9600, -92.593
1571.9800, -88.012
1572.0000,-210.000
1572.0200,-210.000
1572.0400, -84.387
1572.0600, -91.184
1572.0800, -82.850
1572.1000, -87.009
1572.1200,-210.000
1572.1400, -89.073
1572.1600,-210.000
1572.1800,-210.000
1572.2000,-210.000
1572.2200, -86.746
1572.2400, -83.833
1572.2600, -87.852
1572.2800, -86.631
1572.3000, -85.414
1572.3200,-210.000
1572.3400, -89.038
1572.3600, -84.837
1572.3800, -88.964
1572.4000, -90.104
1572.4200, -90.827
1572.4400, -90.145
1572.4600, -89.829
1572.4800, -84.645
1572.5000,-210.000
1572.5200, -84.248
1572.5400, -86.085
1572.5600, -85.956
1572.5800, -85.859
1572.6000, -82.381
1572.6200, -88.429
1572.6400, -86.962
1572.6600, -87.164
1572.6800, -97.751
1572.7000,-210.000
1572.7200, -84.003
1572.7400, -87.702
1572.7600,-210.000
1572.7800, -93.397
1572.8000, -83.612
1572.8200,-210.000
1572.8400, -85.517
1572.8600,-210.000
1572.8800, -92.402
1572.9000,-210.000
1572.9200, -83.904
1572.9400, -84.016
1572.9600, -90.576
1572.9800, -84.106
1573.0000, -90.336
1573.0200, -87.947
1573.0400, -83.675
1573.0600,-210.000
1573.0800, -85.418
1573.1000, -84.553
1573.1200, -92.450
1573.1400,-210.000
1573.1600, -82.224
1573.1800,-210.000
1573.2000,-210.000
1573.2200,-210.000
1573.2400, -88.572
1573.2600,-210.000
1573.2800, -84.074
1573.3000,-210.000
1573.3200, -82.719
1573.3400, -84.756
1573.3600,-210.000
1573.3800,-104.415
1573.4000, -84.493
1573.4200, -85.811
1573.4400, -84.531
1573.4600, -83.386
1573.4800, -87.801
1573.5000, -94.818
1573.5200,-210.000
1573.5400, -85.042
1573.5600, -95.743
1573.5800,-210.000
1573.6000, -85.464
1573.6200,-210.000
1573.6400, -80.515
1573.6600, -88.208
1573.6800, -86.278
1573.7000, -98.149
1573.7200,-210.000
1573.7400, -85.830
1573.7600, -85.446
1573.7800, -87.990
1573.8000,-210.000
1573.8200,-210.000
1573.8400, -83.007
1573.8600, -84.122
1573.8800, -92.386
1573.9000,-210.000
1573.9200, -83.773
1573.9400,-210.000
1573.9600, -86.152
1573.9800, -86.384
1574.0000, -90.115
1574.0200,-210.000
1574.0400, -81.098
1574.0600,-210.000
1574.0800, -86.601
1574.1000, -89.194
1574.1200, -82.863
1574.1400, -85.841
1574.1600,-111.094
1574.1800, -85.756
1574.2000, -88.375
1574.2200, -85.077
1574.2400, -84.271
1574.2600, -86.733
1574.2800, -83.609
1574.3000, -88.280
1574.3200, -86.569
1574.3400,-210.000
1574.3600,-210.000
1574.3800, -91.578
1574.4000,-210.000
1574.4200, -81.801
1574.4400,-210.000
1574.4600,-100.055
1574.4800, -82.730
1574.5000, -82.423
1574.5200,-210.000
1574.5400, -83.941
1574.5600,-210.000
1574.5800, -90.332
1574.6000, -85.458
1574.6200,-210.000
1574.6400, -80.455
1574.6600,-210.000
1574.6800,-210.000
1574.7000, -81.248
1574.7200, -85.266
1574.7400, -84.624
1574.7600, -85.249
1574.7800, -86.404
1574.8000, -93.027
1574.8200, -88.625
1574.8400, -87.748
1574.8600, -93.441
1574.8800,-210.000
1574.9000, -84.045
1574.9200, -89.739
1574.9400, -91.093
1574.9600, -84.645
1574.9800, -83.884
1575.0000,-210.000
1575.0200, -85.878
1575.0400, -83.489
1575.0600, -83.820
1575.0800, -84.817
1575.1000, -95.757
1575.1200, -85.454
1575.1400, -84.424
1575.1600,-210.000
1575.1800, -88.769
1575.2000, -84.180
1575.2200, -87.600
1575.2400, -88.985
1575.2600, -97.770
1575.2800, -83.638
1575.3000,-210.000
1575.3200,-210.000
1575.3400, -84.351
1575.3600,-210.000
1575.3800, -86.714
1575.4000, -87.379
1575.4200, -82.977
1575.4400, -84.472
1575.4600,-210.000
1575.4800,-210.000
1575.5000, -89.731
1575.5200, -91.763
1575.5400, -83.412
1575.5600,-210.000
1575.5800, -82.725
1575.6000,-210.000
1575.6200, -84.361
1575.6400, -80.268
1575.6600,-210.000
1575.6800, -83.171
1575.7000, -85.566
1575.7200,-105.242
1575.7400, -92.487
1575.7600, -86.310
1575.7800, -87.677
1575.8000,-210.000
1575.8200, -88.441
1575.8400, -85.906
1575.8600, -84.710
1575.8800, -87.054
1575.9000, -83.127
1575.9200, -84.000
1575.9400,-210.000
1575.9600, -83.783
1575.9800, -87.436
1576.0000, -94.159
1576.0200, -89.470
1576.0400,-210.000
1576.0600, -84.825
1576.0800,-210.000
1576.1000, -85.002
1576.1200,-210.000
1576.1400,-210.000
1576.1600, -83.164
1576.1800,-116.427
1576.2000, -84.800
1576.2200, -83.339
1576.2400,-210.000
1576.2600, -92.728
1576.2800, -86.029
1576.3000,-210.000
1576.3200, -84.922
1576.3400,-210.000
1576.3600, -87.173
1576.3800,-210.000
1576.4000,-210.000
1576.4200, -84.363
1576.4400,-210.000
1576.4600, -82.776
1576.4800,-210.000
1576.5000, -94.264
1576.5200, -85.784
1576.5400,-210.000
1576.5600, -93.313
1576.5800, -86.185
1576.6000,-210.000
1576.6200, -83.839
1576.6400, -85.187
1576.6600, -85.864
1576.6800,-210.000
1576.7000,-210.000
1576.7200, -87.945
1576.7400,-210.000
1576.7600, -82.615
1576.7800, -86.170
1576.8000,-210.000
1576.8200, -90.080
1576.8400, -92.973
1576.8600, -87.531
1576.8800, -83.747
1576.9000, -84.683
1576.9200, -86.216
1576.9400,-210.000
1576.9600, -96.954
1576.9800, -92.597
1577.0000,-210.000
1577.0200, -95.268
1577.0400, -89.241
1577.0600, -88.181
1577.0800, -86.394
1577.1000, -87.279
1577.1200, -83.604
1577.1400, -83.759
1577.1600, -98.856
1577.1800,-210.000
1577.2000, -81.520
1577.2200, -91.944
1577.2400, -86.323
1577.2600,-210.000
1577.2800, -84.443
1577.3000,-210.000
1577.3200, -85.347
1577.3400, -87.487
1577.3600,-210.000
1577.3800, -81.110
1577.4000,-210.000
1577.4200, -88.855
1577.4400, -84.524
1577.4600, -89.819
1577.4800,-210.000
1577.5000, -82.939
1577.5200, -84.668
1577.5400, -87.772
1577.5600,-210.000
1577.5800, -82.245
1577.6000, -91.979
1577.6200, -83.146
1577.6400, -85.717
1577.6600, -92.551
1577.6800, -89.731
1577.7000,-210.000
1577.7200,-210.000
1577.7400, -84.160
1577.7600, -83.692
1577.7800, -83.583
1577.8000, -86.008
1577.8200, -82.250
1577.8400, -94.467
1577.8600,-210.000
1577.8800,-210.000
1577.9000, -82.796
1577.9200,-210.000
1577.9400,-210.000
1577.9600,-210.000
1577.9800,-210.000
1578.0000, -88.338
1578.0200, -82.498
1578.0400, -88.885
1578.0600, -83.915
1578.0800, -84.491
1578.1000, -85.718
1578.1200, -90.222
1578.1400, -90.655
1578.1600, -90.642
1578.1800, -87.019
1578.2000, -83.756
1578.2200, -87.399
1578.2400, -84.410
1578.2600,-210.000
1578.2800, -83.520
1578.3000,-210.000
1578.3200, -88.931
1578.3400,-210.000
1578.3600, -84.309
1578.3800, -93.544
1578.4000, -91.050
1578.4200, -88.645
1578.4400,-210.000
1578.4600, -86.968
1578.4800,-210.000
1578.5000,-210.000
1578.5200, -83.263
1578.5400, -89.733
1578.5600, -90.314
1578.5800,-210.000
1578.6000, -91.091
1578.6200, -83.633
1578.6400, -83.965
1578.6600,-210.000
1578.6800,-210.000
1578.7000, -83.028
1578.7200, -82.960
1578.7400,-210.000
1578.7600,-210.000
1578.7800,-210.000
1578.8000, -82.795
1578.8200,-210.000
1578.8400, -84.694
1578.8600,-210.000
1578.8800,-210.000
1578.9000, -79.721
1578.9200, -90.091
1578.9400,-210.000
1578.9600, -85.978
1578.9800, -82.766
1579.0000, -85.784
1579.0200, -81.945
1579.0400,-210.000
1579.0600,-101.064
1579.0800, -86.068
1579.1000, -85.825
1579.1200, -83.039
1579.1400,-210.000
1579.1600, -87.203
1579.1800, -87.783
1579.2000, -83.132
1579.2200, -88.229
1579.2400, -99.061
1579.2600, -86.328
1579.2800, -85.666
1579.3000,-210.000
1579.3200, -81.893
1579.3400,-210.000
1579.3600, -86.142
1579.3800, -87.039
1579.4000,-210.000
1579.4200, -86.899
1579.4400, -80.307
1579.4600,-210.000
1579.4800, -83.843
1579.5000, -83.244
1579.5200,-210.000
1579.5400, -81.168
1579.5600, -86.499
1579.5800, -85.785
1579.6000, -87.671
1579.6200,-210.000
1579.6400,-210.000
1579.6600,-210.000
1579.6800, -84.634
1579.7000,-106.569
1579.7200, -93.259
1579.7400, -81.759
1579.7600, -87.250
1579.7800,-210.000
1579.8000, -90.063
1579.8200, -86.105
1579.8400, -82.974
1579.8600, -85.576
1579.8800, -93.901
1579.9000, -84.190
1579.9200, -82.274
1579.9400,-210.000
1579.9600, -88.480
1579.9800, -82.829
1580.0000, -84.472
1580.0200, -89.580
1580.0400, -85.641
1580.0600, -83.765
1580.0800, -88.243
1580.1000,-210.000
1580.1200, -87.536
1580.1400,-210.000
1580.1600, -83.098
1580.1800,-210.000
1580.2000,-210.000
1580.2200, -83.365
1580.2400, -85.837
1580.2600,-210.000
1580.2800, -82.524
1580.3000,-210.000
1580.3200,-210.000
1580.3400, -88.349
1580.3600, -86.966
1580.3800,-210.000
1580.4000,-210.000
1580.4200, -86.149
1580.4400, -82.937
1580.4600, -84.286
1580.4800,-210.000
1580.5000, -83.726
1580.5200, -87.625
1580.5400,-210.000
1580.5600, -84.186
1580.5800, -85.925
1580.6000, -92.258
1580.6200, -87.680
1580.6400,-210.000
1580.6600,-100.210
1580.6800, -92.664
1580.7000, -87.319
1580.7200, -82.252
1580.7400,-210.000
1580.7600, -87.781
1580.7800, -87.007
1580.8000,-210.000
1580.8200, -82.362
1580.8400, -89.396
1580.8600, -86.555
1580.8800, -87.809
1580.9000, -85.198
1580.9200,-210.000
1580.9400,-210.000
1580.9600, -82.773
1580.9800, -91.911
1581.0000, -83.579
1581.0200, -84.606
1581.0400, -85.170
1581.0600,-210.000
1581.0800,-210.000
1581.1000, -88.538
1581.1200, -92.742
1581.1400, -84.351
1581.1600, -91.767
1581.1800, -85.149
1581.2000,-210.000
1581.2200, -84.177
1581.2400,-210.000
1581.2600, -84.624
1581.2800, -88.122
1581.3000,-210.000
1581.3200,-210.000
1581.3400, -90.107
1581.3600, -91.628
1581.3800, -83.602
1581.4000,-210.000
1581.4200, -89.329
1581.4400,-210.000
1581.4600, -86.125
1581.4800,-210.000
1581.5000,-210.000
1581.5200, -85.750
1581.5400, -82.668
1581.5600, -88.543
1581.5800, -91.528
1581.6000, -85.276
1581.6200, -88.584
1581.6400, -86.329
1581.6600, -82.716
1581.6800,-210.000
1581.7000, -85.755
1581.7200, -87.707
1581.7400, -82.871
1581.7600, -84.919
1581.7800, -86.638
1581.8000,-210.000
1581.8200, -83.423
1581.8400,-210.000
1581.8600, -83.961
1581.8800,-210.000
1581.9000, -86.033
1581.9200, -83.229
1581.9400, -87.795
1581.9600, -88.512
1581.9800, -93.647
1582.0000, -85.444
1582.0200, -88.316
1582.0400,-210.000
1582.0600,-210.000
1582.0800,-210.000
1582.1000, -82.025
1582.1200, -85.256
1582.1400, -83.798
1582.1600, -87.078
1582.1800,-112.071
1582.2000, -92.581
1582.2200,-210.000
1582.2400, -83.980
1582.2600, -90.847
1582.2800, -86.466
1582.3000, -81.653
1582.3200, -85.752
1582.3400, -83.677
1582.3600, -88.144
1582.3800,-210.000
1582.4000,-210.000
1582.4200, -80.939
1582.4400, -95.336
1582.4600, -84.984
1582.4800, -85.856
1582.5000,-210.000
1582.5200,-210.000
1582.5400, -86.317
1582.5600,-210.000
1582.5800, -82.725
1582.6000, -82.703
1582.6200,-210.000
1582.6400,-210.000
1582.6600,-210.000
1582.6800,-121.388
1582.7000,-210.000
1582.7200, -85.596
1582.7400, -87.563
1582.7600, -81.179
1582.7800, -84.228
1582.8000,-210.000
1582.8200,-210.000
1582.8400, -83.008
1582.8600, -87.259
1582.8800, -90.964
1582.9000, -83.581
1582.9200, -86.852
1582.9400, -97.034
1582.9600, -83.798
1582.9800, -92.723
1583.0000, -80.843
1583.0200, -83.390
1583.0400, -87.548
1583.0600,-210.000
1583.0800,-210.000
1583.1000, -84.083
1583.1200, -83.385
1583.1400,-210.000
1583.1600, -86.023
1583.1800, -86.603
1583.2000, -86.628
1583.2200,-210.000
1583.2400, -87.386
1583.2600, -89.194
1583.2800, -86.072
1583.3000, -84.065
1583.3200, -87.162
1583.3400,-210.000
1583.3600,-210.000
1583.3800, -97.124
1583.4000, -90.805
1583.4200, -85.776
1583.4400, -83.082
1583.4600, -84.106
1583.4800,-210.000
1583.5000, -86.110
1583.5200, -84.748
1583.5400, -82.823
1583.5600, -89.035
1583.5800,-210.000
1583.6000, -88.852
1583.6200,-210.000
1583.6400, -84.953
1583.6600, -88.075
1583.6800, -84.054
1583.7000,-210.000
1583.7200, -81.117
1583.7400,-210.000
1583.7600, -82.835
1583.7800, -82.351
1583.8000,-210.000
1583.8200, -86.080
1583.8400, -84.628
1583.8600, -87.157
1583.8800, -84.139
1583.9000, -85.376
1583.9200,-210.000
1583.9400, -83.161
1583.9600,-210.000
1583.9800, -82.227
1584.0000, -84.411
1584.0200,-210.000
1584.0400, -88.410
1584.0600,-210.000
1584.0800, -88.300
1584.1000, -83.110
1584.1200, -87.559
1584.1400, -85.577
1584.1600,-210.000
1584.1800, -82.391
1584.2000,-210.000
1584.2200, -83.390
1584.2400, -85.766
1584.2600, -90.579
1584.2800, -91.702
1584.3000, -83.383
1584.3200,-210.000
1584.3400, -96.642
1584.3600, -81.687
1584.3800, -84.734
1584.4000,-210.000
1584.4200, -84.034
1584.4400, -90.563
1584.4600, -97.882
1584.4800,-210.000
1584.5000, -87.458
1584.5200, -81.753
1584.5400, -93.083
1584.5600, -85.089
1584.5800, -81.108
1584.6000,-210.000
1584.6200, -88.950
1584.6400,-210.000
1584.6600, -87.471
1584.6800,-210.000
1584.7000, -85.231
1584.7200, -83.603
1584.7400, -85.367
1584.7600, -85.197
1584.7800, -86.556
1584.8000,-210.000
1584.8200, -84.312
1584.8400,-210.000
1584.8600,-210.000
1584.8800, -99.763
1584.9000, -81.091
1584.9200, -85.331
1584.9400, -87.866
1584.9600,-210.000
1584.9800, -86.952
1585.0000, -86.301
1585.0200, -88.118
1585.0400,-210.000
1585.0600, -80.451
1585.0800, -83.430
1585.1000, -86.392
1585.1200,-210.000
1585.1400, -84.174
1585.1600,-210.000
1585.1800, -91.890
1585.2000, -86.788
1585.2200, -90.737
1585.2400, -82.607
1585.2600, -83.843
1585.2800,-210.000
1585.3000, -90.579
1585.3200, -87.020
1585.3400, -81.504
1585.3600,-210.000
1585.3800, -82.312
1585.4000, -91.466
1585.4200,-210.000
1585.4400, -81.065
1585.4600, -83.208
1585.4800, -88.154
1585.5000, -85.165
1585.5200, -94.590
1585.5400, -93.852
1585.5600, -88.991
1585.5800,-210.000
1585.6000, -84.702
1585.6200, -84.763
1585.6400,-210.000
1585.6600, -82.718
1585.6800, -82.471
1585.7000,-210.000
1585.7200, -89.295
1585.7400,-210.000
1585.7600,-210.000
1585.7800,-210.000
1585.8000, -83.752
1585.8200,-210.000
1585.8400, -79.901
1585.8600,-210.000
1585.8800, -80.265
1585.9000, -87.727
1585.9200, -85.104
1585.9400,-210.000
1585.9600,-210.000
1585.9800, -79.437
1586.0000,-210.000
1586.0200, -83.405
1586.0400, -83.820
1586.0600, -87.577
1586.0800,-210.000
1586.1000,-210.000
1586.1200, -82.440
1586.1400, -87.142
1586.1600, -88.255
1586.1800,-210.000
1586.2000, -83.311
1586.2200, -85.347
1586.2400, -92.632
1586.2600, -92.392
1586.2800, -81.829
1586.3000,-210.000
1586.3200,-210.000
1586.3400, -84.299
1586.3600, -81.026
1586.3800,-210.000
1586.4000,-210.000
1586.4200, -86.226
1586.4400, -83.901
1586.4600, -83.608
1586.4800, -96.789
1586.5000, -82.600
1586.5200,-210.000
1586.5400, -80.747
1586.5600,-210.000
1586.5800, -84.102
1586.6000, -89.661
1586.6200, -85.429
1586.6400, -82.992
1586.6600, -83.668
1586.6800, -85.741
1586.7000, -87.518
1586.7200,-210.000
1586.7400,-210.000
1586.7600, -82.432
1586.7800,-210.000
1586.8000, -95.646
1586.8200, -85.342
1586.8400, -84.478
1586.8600,-109.991
1586.8800,-210.000
1586.9000,-210.000
1586.9200, -91.661
1586.9400,-210.000
1586.9600,-210.000
1586.9800,-210.000
1587.0000, -80.581
1587.0200, -85.738
1587.0400,-210.000
1587.0600, -83.171
1587.0800, -90.703
1587.1000, -98.968
1587.1200,-210.000
1587.1400, -84.046
1587.1600,-210.000
1587.1800, -86.689
1587.2000, -88.573
1587.2200,-210.000
1587.2400, -95.808
1587.2600, -82.585
1587.2800,-210.000
1587.3000, -83.628
1587.3200,-210.000
1587.3400, -91.835
1587.3600, -85.918
1587.3800, -82.389
1587.4000, -85.781
1587.4200, -85.305
1587.4400, -90.679
1587.4600, -85.508
1587.4800,-102.285
1587.5000,-210.000
1587.5200, -84.557
1587.5400, -84.498
1587.5600, -86.744
1587.5800, -88.963
1587.6000, -84.034
1587.6200, -91.604
1587.6400, -87.232
1587.6600,-210.000
1587.6800,-103.859
1587.7000, -83.070
1587.7200, -88.646
1587.7400,-210.000
1587.7600, -83.800
1587.7800, -85.846
1587.8000,-210.000
1587.8200,-210.000
1587.8400,-210.000
1587.8600, -86.377
1587.8800, -83.585
1587.9000, -84.882
1587.9200,-210.000
1587.9400,-210.000
1587.9600,-210.000
1587.9800, -88.504
1588.0000, -83.181
1588.0200, -86.812
1588.0400, -86.277
1588.0600, -90.373
1588.0800, -93.886
1588.1000,-210.000
1588.1200, -85.568
1588.1400,-210.000
1588.1600, -88.905
1588.1800, -84.676
1588.2000,-210.000
1588.2200, -82.589
1588.2400, -82.167
1588.2600, -85.156
1588.2800, -90.380
1588.3000, -91.862
1588.3200, -85.891
1588.3400, -83.959
1588.3600,-210.000
1588.3800, -85.721
1588.4000,-210.000
1588.4200, -84.377
1588.4400,-210.000
1588.4600,-210.000
1588.4800, -82.276
1588.5000, -96.679
1588.5200, -83.049
1588.5400,-210.000
1588.5600,-210.000
1588.5800, -97.585
1588.6000, -85.518
1588.6200,-210.000
1588.6400, -81.749
1588.6600,-109.763
1588.6800, -88.742
1588.7000,-210.000
1588.7200, -83.611
1588.7400,-210.000
1588.7600, -99.995
1588.7800, -83.338
1588.8000, -87.319
1588.8200,-210.000
1588.8400,-210.000
1588.8600, -84.040
1588.8800,-210.000
1588.9000,-210.000
1588.9200, -81.964
1588.9400, -92.333
1588.9600, -90.459
1588.9800, -88.052
1589.0000, -85.806
1589.0200, -94.783
1589.0400, -94.480
1589.0600, -82.154
1589.0800,-210.000
1589.1000, -91.910
1589.1200, -87.122
1589.1400, -85.579
1589.1600, -84.924
1589.1800,-100.260
1589.2000,-210.000
1589.2200, -88.226
1589.2400,-106.139
1589.2600,-106.595
1589.2800, -88.112
1589.3000, -83.778
1589.3200, -83.626
1589.3400, -95.310
1589.3600, -93.596
1589.3800, -92.472
1589.4000, -84.867
1589.4200,-210.000
1589.4400, -85.353
1589.4600, -90.539
1589.4800, -86.436
1589.5000, -81.909
1589.5200,-210.000
1589.5400, -82.732
1589.5600,-210.000
1589.5800, -86.284
1589.6000, -89.995
1589.6200, -83.445
1589.6400, -88.157
1589.6600,-210.000
1589.6800, -85.241
1589.7000, -84.341
1589.7200, -86.450
1589.7400, -92.051
1589.7600,-210.000
1589.7800, -84.979
1589.8000,-210.000
1589.8200,-210.000
1589.8400, -88.305
1589.8600, -86.683
1589.8800,-104.552
1589.9000, -89.810
1589.9200, -85.121
1589.9400, -96.551
1589.9600, -83.543
1589.9800, -98.797
1590.0000, -86.150
1590.0200,-210.000
1590.0400, -96.493
1590.0600, -88.669
1590.0800,-210.000
1590.1000, -83.581
1590.1200, -86.929
1590.1400, -85.913
1590.1600,-210.000
1590.1800, -87.028
1590.2000,-210.000
1590.2200, -87.589
1590.2400, -84.597
1590.2600,-210.000
1590.2800, -84.262
1590.3000, -85.990
1590.3200, -84.668
1590.3400, -88.900
1590.3600, -87.944
1590.3800,-210.000
1590.4000, -83.650
1590.4200,-210.000
1590.4400, -87.827
1590.4600,-210.000
1590.4800, -89.298
1590.5000, -91.637
1590.5200, -82.640
1590.5400, -86.888
1590.5600, -87.914
1590.5800, -84.489
1590.6000,-210.000
1590.6200,-210.000
1590.6400, -82.814
1590.6600, -98.550
1590.6800, -88.605
1590.7000, -83.970
1590.7200, -85.598
1590.7400, -86.351
1590.7600, -89.416
1590.7800,-210.000
1590.8000, -88.922
1590.8200, -87.144
1590.8400, -93.733
1590.8600,-210.000
1590.8800, -83.112
1590.9000,-210.000
1590.9200, -88.641
1590.9400, -86.481
1590.9600,-210.000
1590.9800,-210.000
1591.0000, -87.445
1591.0200, -87.144
1591.0400, -85.545
1591.0600, -86.078
1591.0800,-210.000
1591.1000, -81.569
1591.1200,-210.000
1591.1400, -84.922
1591.1600,-210.000
1591.1800, -86.604
1591.2000, -88.372
1591.2200,-210.000
1591.2400, -98.154
1591.2600,-210.000
1591.2800,-210.000
1591.3000, -82.966
1591.3200,-210.000
1591.3400, -80.314
1591.3600,-210.000
1591.3800, -85.038
1591.4000, -84.658
1591.4200, -82.789
1591.4400,-210.000
1591.4600, -84.769
1591.4800,-210.000
1591.5000, -95.106
1591.5200, -96.492
1591.5400,-210.000
1591.5600,-210.000
1591.5800, -82.962
1591.6000, -86.293
1591.6200, -90.432
1591.6400, -82.974
1591.6600,-210.000
1591.6800, -82.257
1591.7000, -88.520
1591.7200,-210.000
1591.7400,-210.000
1591.7600, -84.402
1591.7800, -85.040
1591.8000, -92.029
1591.8200, -89.483
1591.8400, -87.650
1591.8600, -86.102
1591.8800, -81.819
1591.9000, -89.792
1591.9200,-210.000
1591.9400, -84.567
1591.9600, -86.992
1591.9800,-210.000
1592.0000, -90.027
1592.0200, -86.141
1592.0400, -89.377
1592.0600,-210.000
1592.0800,-210.000
1592.1000, -87.266
1592.1200, -91.601
1592.1400,-210.000
1592.1600, -82.982
1592.1800, -82.822
1592.2000,-210.000
1592.2200, -86.149
1592.2400, -89.010
1592.2600, -88.332
1592.2800,-210.000
1592.3000,-210.000
1592.3200, -81.424
1592.3400, -91.726
1592.3600, -84.550
1592.3800, -81.465
1592.4000,-210.000
1592.4200,-210.000
1592.4400, -86.581
1592.4600, -84.107
1592.4800, -88.352
1592.5000, -87.736
1592.5200,-210.000
1592.5400, -85.284
1592.5600, -86.791
1592.5800, -83.543
1592.6000,-210.000
1592.6200,-210.000
1592.6400, -83.230
1592.6600, -84.558
1592.6800,-210.000
1592.7000, -80.829
1592.7200,-210.000
1592.7400,-210.000
1592.7600, -80.205
1592.7800, -82.897
1592.8000, -83.299
1592.8200, -85.615
1592.8400, -99.963
1592.8600, -93.117
1592.8800, -82.236
1592.9000,-210.000
1592.9200,-210.000
1592.9400, -84.545
1592.9600, -84.520
1592.9800, -91.091
1593.0000, -92.706
1593.0200,-210.000
1593.0400, -89.889
1593.0600, -82.754
1593.0800,-210.000
1593.1000, -81.735
1593.1200,-210.000
1593.1400, -84.392
1593.1600, -85.460
1593.1800,-210.000
1593.2000, -83.085
1593.2200,-210.000
1593.2400,-210.000
1593.2600,-210.000
1593.2800, -91.167
1593.3000,-210.000
1593.3200, -88.993
1593.3400, -96.755
1593.3600,-210.000
1593.3800, -83.715
1593.4000, -82.579
1593.4200,-210.000
1593.4400, -83.818
1593.4600,-210.000
1593.4800, -83.803
1593.5000, -87.473
1593.5200,-210.000
1593.5400, -84.540
1593.5600,-210.000
1593.5800, -95.182
1593.6000,-210.000
1593.6200, -88.266
1593.6400,-210.000
1593.6600,-210.000
1593.6800, -90.901
1593.7000,-210.000
1593.7200, -88.512
1593.7400, -81.737
1593.7600, -90.627
1593.7800, -86.384
1593.8000, -84.532
1593.8200,-210.000
1593.8400, -87.663
1593.8600,-210.000
1593.8800, -82.823
1593.9000, -92.909
1593.9200, -82.440
1593.9400, -89.935
1593.9600, -99.158
1593.9800,-210.000
1594.0000,-210.000
1594.0200, -84.540
1594.0400, -83.543
1594.0600, -86.404
1594.0800, -86.277
1594.1000, -85.794
1594.1200, -87.887
1594.1400, -83.145
1594.1600,-210.000
1594.1800, -88.324
1594.2000, -83.632
1594.2200,-210.000
1594.2400, -93.167
1594.2600, -85.658
1594.2800,-210.000
1594.3000, -85.609
1594.3200, -83.348
1594.3400,-210.000
1594.3600,-210.000
1594.3800, -87.110
1594.4000, -83.172
1594.4200, -81.576
1594.4400,-210.000
1594.4600, -86.720
1594.4800, -81.643
1594.5000, -82.806
1594.5200, -90.882
1594.5400,-101.168
1594.5600, -94.824
1594.5800, -84.833
1594.6000, -91.658
1594.6200,-210.000
1594.6400, -84.044
1594.6600, -89.669
1594.6800, -85.241
1594.7000,-210.000
1594.7200, -83.359
1594.7400,-210.000
1594.7600, -88.802
1594.7800, -84.432
1594.8000, -91.743
1594.8200,-210.000
1594.8400, -80.816
1594.8600, -93.026
1594.8800, -84.932
1594.9000,-210.000
1594.9200,-210.000
1594.9400, -83.199
1594.9600, -81.548
1594.9800, -85.604
1595.0000,-210.000
1595.0200, -87.077
1595.0400, -84.640
1595.0600, -87.576
1595.0800, -87.567
1595.1000, -89.440
1595.1200, -88.154
1595.1400, -84.538
1595.1600, -97.666
1595.1800,-210.000
1595.2000, -83.031
1595.2200, -84.360
1595.2400, -92.674
1595.2600,-210.000
1595.2800, -85.773
1595.3000, -85.165
1595.3200, -88.980
1595.3400,-210.000
1595.3600,-101.584
1595.3800, -92.233
1595.4000, -89.856
1595.4200, -89.876
1595.4400,-210.000
1595.4600, -91.675
1595.4800, -82.580
1595.5000, -92.112
1595.5200, -86.192
1595.5400, -98.959
1595.5600,-210.000
1595.5800, -87.424
1595.6000,-210.000
1595.6200, -85.186
1595.6400, -83.367
1595.6600, -86.481
1595.6800, -83.120
1595.7000, -85.680
1595.7200, -94.959
1595.7400,-210.000
1595.7600, -84.786
1595.7800, -90.887
1595.8000, -82.483
1595.8200,-210.000
1595.8400, -82.196
1595.8600,-210.000
1595.8800, -86.188
1595.9000, -84.629
1595.9200,-210.000
1595.9400, -81.834
1595.9600, -82.947
1595.9800, -92.623
1596.0000, -90.675
1596.0200,-210.000
1596.0400, -79.852
1596.0600, -88.310
1596.0800,-103.608
1596.1000, -92.132
1596.1200, -83.625
1596.1400, -87.528
1596.1600,-210.000
1596.1800, -81.531
1596.2000, -82.221
1596.2200, -85.266
1596.2400,-210.000
1596.2600,-210.000
1596.2800, -78.886
1596.3000, -83.607
1596.3200, -84.535
1596.3400,-210.000
1596.3600, -93.834
1596.3800,-210.000
1596.4000, -92.791
1596.4200, -84.603
1596.4400, -96.066
1596.4600, -84.557
1596.4800, -83.927
1596.5000, -89.948
1596.5200,-210.000
1596.5400, -87.836
1596.5600, -87.161
1596.5800,-210.000
1596.6000, -82.559
1596.6200, -80.657
1596.6400,-210.000
1596.6600, -80.380
1596.6800, -84.167
1596.7000,-210.000
1596.7200, -86.097
1596.7400, -83.773
1596.7600,-210.000
1596.7800, -83.656
1596.8000, -99.809
1596.8200,-210.000
1596.8400, -83.524
1596.8600, -81.413
1596.8800,-210.000
1596.9000, -82.947
1596.9200, -86.130
1596.9400, -84.137
1596.9600, -87.583
1596.9800, -88.175
1597.0000, -85.233
1597.0200, -90.371
1597.0400,-210.000
1597.0600, -83.910
1597.0800, -90.091
1597.1000,-210.000
1597.1200, -82.198
1597.1400, -83.525
1597.1600, -84.034
1597.1800, -85.725
1597.2000, -88.978
1597.2200,-210.000
1597.2400,-210.000
1597.2600, -85.909
1597.2800, -83.874
1597.3000, -88.832
1597.3200,-210.000
1597.3400, -80.057
1597.3600, -88.045
1597.3800,-210.000
1597.4000, -93.439
1597.4200, -86.335
1597.4400,-210.000
1597.4600, -87.465
1597.4800,-210.000
1597.5000,-210.000
1597.5200, -87.622
1597.5400, -84.174
1597.5600,-210.000
1597.5800, -87.661
1597.6000,-210.000
1597.6200, -85.608
1597.6400, -89.213
1597.6600,-210.000
1597.6800, -80.086
1597.7000, -83.838
1597.7200,-210.000
1597.7400, -82.587
1597.7600, -83.482
1597.7800,-210.000
1597.8000, -83.409
1597.8200,-210.000
1597.8400,-210.000
1597.8600, -85.939
1597.8800, -85.965
1597.9000, -92.064
1597.9200, -84.730
1597.9400, -87.249
1597.9600,-210.000
1597.9800,-210.000
1598.0000, -84.013
1598.0200,-210.000
1598.0400, -84.072
1598.0600,-210.000
1598.0800, -84.348
1598.1000, -88.248
1598.1200,-210.000
1598.1400, -81.989
1598.1600, -83.460
1598.1800, -84.986
1598.2000,-210.000
1598.2200, -87.439
1598.2400,-210.000
1598.2600,-210.000
1598.2800,-210.000
1598.3000, -88.714
1598.3200,-210.000
1598.3400, -90.024
1598.3600, -86.312
1598.3800, -84.801
1598.4000, -83.520
1598.4200,-210.000
1598.4400, -84.619
1598.4600,-210.000
1598.4800, -81.974
1598.5000,-210.000
1598.5200, -87.765
1598.5400, -88.567
1598.5600, -83.366
1598.5800, -88.458
1598.6000,-210.000
1598.6200, -83.323
1598.6400, -85.390
1598.6600, -83.853
1598.6800,-210.000
1598.7000, -85.135
1598.7200, -87.188
1598.7400, -97.029
1598.7600, -86.487
1598.7800, -91.540
1598.8000,-210.000
1598.8200, -90.378
1598.8400, -81.975
1598.8600,-210.000
1598.8800, -85.298
1598.9000,-210.000
1598.9200, -87.997
1598.9400, -82.422
1598.9600, -88.654
1598.9800, -84.246
1599.0000, -88.661
1599.0200,-210.000
1599.0400, -85.474
1599.0600, -94.930
1599.0800,-210.000
1599.1000, -92.796
1599.1200, -86.318
1599.1400, -91.303
1599.1600,-210.000
1599.1800,-210.000
1599.2000, -92.691
1599.2200, -91.049
1599.2400, -85.127
1599.2600,-210.000
1599.2800, -87.524
1599.3000, -85.764
1599.3200, -94.352
1599.3400, -86.911
1599.3600,-210.000
1599.3800, -83.854
1599.4000, -95.566
1599.4200,-210.000
1599.4400, -83.092
1599.4600, -82.932
1599.4800,-210.000
1599.5000, -83.574
1599.5200,-210.000
1599.5400, -92.566
1599.5600, -85.335
1599.5800, -84.223
1599.6000, -83.605
1599.6200,-210.000
1599.6400,-210.000
1599.6600, -87.036
1599.6800, -96.121
1599.7000, -80.867
1599.7200,-210.000
1599.7400, -95.401
1599.7600, -87.900
1599.7800, -81.597
1599.8000, -88.044
1599.8200, -85.556
1599.8400,-210.000
1599.8600, -83.939
1599.8800, -89.467
1599.9000, -89.595
1599.9200, -84.998
1599.9400, -85.460
1599.9600,-210.000
1599.9800, -91.694
1600.0000, -83.433
