70BCSV 	
// AQ6370B OPTICAL SPECTRUM ANALYZER //                 
25
"CTRWL",1550.000000
"SPAN", 100.000000
"START WL",1500.000000
"STOP WL",1600.000000
"WLFREQ", 0
"REFL",-62.8
"LSCL", 5.0
"RESLN",0.100
"AVG",   1
"SMPLAUTO",      0
"SMPL",       5001
"SMPLINTVL",0.0200
"HIGH1"
"MEAS"
"LSUNT",0
"NMSKH","OFF"
"RESCOR",0
"RESPARM", 9050
"FREQPARM", 9050






"[TRACE DATA]"
1500.0000, -82.332
1500.0200,-210.000
1500.0400,-210.000
1500.0600, -86.615
1500.0800, -92.040
1500.1000,-210.000
1500.1200, -85.511
1500.1400, -82.394
1500.1600, -86.813
1500.1800, -86.341
1500.2000, -82.181
1500.2200, -84.713
1500.2400,-210.000
1500.2600,-210.000
1500.2800, -91.676
1500.3000, -82.650
1500.3200, -93.718
1500.3400, -84.239
1500.3600, -82.522
1500.3800,-210.000
1500.4000, -98.349
1500.4200,-210.000
1500.4400, -84.226
1500.4600, -90.372
1500.4800, -89.094
1500.5000,-210.000
1500.5200, -88.615
1500.5400, -83.957
1500.5600, -83.492
1500.5800, -81.877
1500.6000,-210.000
1500.6200,-210.000
1500.6400, -89.897
1500.6600,-210.000
1500.6800,-210.000
1500.7000, -81.160
1500.7200,-106.874
1500.7400,-210.000
1500.7600,-107.628
1500.7800, -81.218
1500.8000, -83.254
1500.8200,-210.000
1500.8400,-210.000
1500.8600, -86.393
1500.8800, -84.273
1500.9000, -82.246
1500.9200, -92.504
1500.9400,-210.000
1500.9600, -85.055
1500.9800, -87.551
1501.0000, -81.298
1501.0200, -84.781
1501.0400, -88.696
1501.0600,-210.000
1501.0800,-210.000
1501.1000, -81.075
1501.1200,-210.000
1501.1400,-210.000
1501.1600, -94.282
1501.1800, -84.644
1501.2000, -91.046
1501.2200, -86.962
1501.2400, -85.653
1501.2600, -86.683
1501.2800, -83.950
1501.3000, -95.473
1501.3200, -83.716
1501.3400,-210.000
1501.3600,-113.714
1501.3800, -85.830
1501.4000, -95.747
1501.4200, -87.329
1501.4400, -81.885
1501.4600, -95.005
1501.4800, -89.799
1501.5000, -87.946
1501.5200,-210.000
1501.5400,-210.000
1501.5600,-210.000
1501.5800,-210.000
1501.6000, -82.898
1501.6200,-210.000
1501.6400,-107.295
1501.6600, -93.723
1501.6800, -84.921
1501.7000,-210.000
1501.7200, -83.268
1501.7400,-101.552
1501.7600,-210.000
1501.7800, -83.175
1501.8000, -90.078
1501.8200, -90.550
1501.8400, -83.927
1501.8600,-210.000
1501.8800, -87.121
1501.9000, -87.444
1501.9200, -92.470
1501.9400, -85.565
1501.9600, -81.195
1501.9800, -86.957
1502.0000, -90.534
1502.0200, -90.818
1502.0400, -86.272
1502.0600, -83.596
1502.0800, -87.166
1502.1000, -85.873
1502.1200, -84.157
1502.1400, -82.878
1502.1600, -86.277
1502.1800, -85.199
1502.2000, -84.754
1502.2200,-210.000
1502.2400,-210.000
1502.2600, -86.712
1502.2800,-210.000
1502.3000, -87.662
1502.3200, -85.553
1502.3400, -84.553
1502.3600, -90.564
1502.3800, -91.324
1502.4000,-210.000
1502.4200, -88.462
1502.4400, -87.905
1502.4600,-210.000
1502.4800, -87.761
1502.5000, -87.459
1502.5200, -85.422
1502.5400,-210.000
1502.5600, -90.037
1502.5800, -82.130
1502.6000, -88.623
1502.6200, -88.298
1502.6400,-210.000
1502.6600, -86.096
1502.6800,-210.000
1502.7000, -85.840
1502.7200,-210.000
1502.7400, -87.077
1502.7600,-210.000
1502.7800, -84.543
1502.8000,-210.000
1502.8200, -87.708
1502.8400, -83.679
1502.8600, -88.288
1502.8800, -89.683
1502.9000, -86.284
1502.9200, -86.633
1502.9400, -86.796
1502.9600, -85.237
1502.9800, -89.879
1503.0000, -85.710
1503.0200, -86.934
1503.0400, -87.211
1503.0600,-210.000
1503.0800, -83.055
1503.1000,-210.000
1503.1200, -86.303
1503.1400,-210.000
1503.1600, -97.611
1503.1800, -90.129
1503.2000, -85.026
1503.2200, -82.359
1503.2400, -92.401
1503.2600, -85.664
1503.2800,-210.000
1503.3000, -83.617
1503.3200,-210.000
1503.3400, -84.987
1503.3600, -87.098
1503.3800, -84.053
1503.4000,-210.000
1503.4200, -81.963
1503.4400,-210.000
1503.4600, -88.510
1503.4800, -88.695
1503.5000, -84.708
1503.5200, -90.223
1503.5400, -84.418
1503.5600,-210.000
1503.5800, -84.489
1503.6000,-210.000
1503.6200, -95.688
1503.6400, -86.281
1503.6600, -84.423
1503.6800,-210.000
1503.7000, -90.711
1503.7200, -85.710
1503.7400,-210.000
1503.7600, -84.012
1503.7800,-210.000
1503.8000, -86.045
1503.8200,-210.000
1503.8400, -85.990
1503.8600, -84.565
1503.8800,-115.569
1503.9000, -84.924
1503.9200,-210.000
1503.9400,-210.000
1503.9600, -87.184
1503.9800,-210.000
1504.0000, -86.930
1504.0200, -90.067
1504.0400, -89.513
1504.0600, -90.924
1504.0800, -96.641
1504.1000, -85.363
1504.1200,-210.000
1504.1400, -84.523
1504.1600, -84.704
1504.1800,-210.000
1504.2000, -86.366
1504.2200,-107.473
1504.2400,-210.000
1504.2600, -83.791
1504.2800, -86.394
1504.3000, -86.084
1504.3200,-210.000
1504.3400, -84.759
1504.3600, -85.972
1504.3800,-210.000
1504.4000, -83.445
1504.4200, -87.985
1504.4400,-210.000
1504.4600, -92.284
1504.4800, -86.460
1504.5000, -97.814
1504.5200, -92.096
1504.5400, -88.634
1504.5600, -89.584
1504.5800, -83.604
1504.6000, -90.858
1504.6200,-210.000
1504.6400, -87.108
1504.6600, -84.496
1504.6800, -84.164
1504.7000, -90.129
1504.7200, -82.269
1504.7400, -88.468
1504.7600,-210.000
1504.7800, -83.353
1504.8000, -95.839
1504.8200, -83.847
1504.8400, -87.812
1504.8600,-210.000
1504.8800,-210.000
1504.9000, -99.872
1504.9200,-210.000
1504.9400, -86.920
1504.9600, -86.482
1504.9800, -84.966
1505.0000, -84.765
1505.0200, -83.783
1505.0400, -86.869
1505.0600,-210.000
1505.0800, -83.094
1505.1000,-210.000
1505.1200, -89.178
1505.1400, -92.389
1505.1600, -87.964
1505.1800, -92.312
1505.2000, -83.058
1505.2200, -83.863
1505.2400,-210.000
1505.2600, -83.861
1505.2800,-210.000
1505.3000,-210.000
1505.3200, -89.023
1505.3400, -99.484
1505.3600, -88.703
1505.3800, -85.868
1505.4000, -93.072
1505.4200,-210.000
1505.4400, -91.368
1505.4600,-210.000
1505.4800, -85.606
1505.5000, -81.911
1505.5200,-210.000
1505.5400, -80.679
1505.5600, -93.819
1505.5800, -83.287
1505.6000,-210.000
1505.6200, -84.327
1505.6400, -85.825
1505.6600,-210.000
1505.6800, -83.907
1505.7000, -82.872
1505.7200, -86.198
1505.7400, -87.546
1505.7600,-210.000
1505.7800, -82.197
1505.8000,-210.000
1505.8200, -89.494
1505.8400, -83.262
1505.8600,-210.000
1505.8800, -84.813
1505.9000, -89.032
1505.9200,-210.000
1505.9400, -86.860
1505.9600, -90.718
1505.9800, -88.043
1506.0000, -97.795
1506.0200, -84.482
1506.0400,-210.000
1506.0600, -82.647
1506.0800, -95.639
1506.1000, -83.175
1506.1200, -86.997
1506.1400,-210.000
1506.1600,-210.000
1506.1800, -87.074
1506.2000, -83.757
1506.2200, -84.654
1506.2400, -91.399
1506.2600, -88.202
1506.2800,-210.000
1506.3000,-210.000
1506.3200, -81.170
1506.3400, -89.725
1506.3600,-210.000
1506.3800, -90.644
1506.4000,-210.000
1506.4200, -94.498
1506.4400, -82.274
1506.4600,-210.000
1506.4800, -87.089
1506.5000, -99.327
1506.5200, -83.336
1506.5400, -83.538
1506.5600, -91.435
1506.5800,-210.000
1506.6000, -85.405
1506.6200, -83.439
1506.6400, -88.726
1506.6600, -97.610
1506.6800, -85.482
1506.7000, -85.522
1506.7200, -87.237
1506.7400,-210.000
1506.7600,-210.000
1506.7800, -88.536
1506.8000,-210.000
1506.8200, -85.602
1506.8400,-210.000
1506.8600, -88.120
1506.8800,-210.000
1506.9000, -85.221
1506.9200, -88.529
1506.9400,-210.000
1506.9600,-210.000
1506.9800, -83.270
1507.0000, -84.984
1507.0200,-210.000
1507.0400, -84.401
1507.0600, -83.412
1507.0800,-210.000
1507.1000, -88.287
1507.1200,-210.000
1507.1400, -85.473
1507.1600, -88.985
1507.1800, -82.746
1507.2000, -86.198
1507.2200,-210.000
1507.2400,-210.000
1507.2600, -81.081
1507.2800,-210.000
1507.3000,-210.000
1507.3200, -83.605
1507.3400, -82.075
1507.3600,-210.000
1507.3800, -84.611
1507.4000,-210.000
1507.4200, -83.438
1507.4400,-210.000
1507.4600, -90.125
1507.4800, -82.561
1507.5000, -86.860
1507.5200, -91.516
1507.5400,-210.000
1507.5600, -87.072
1507.5800, -87.286
1507.6000, -82.503
1507.6200, -92.079
1507.6400, -86.710
1507.6600, -85.407
1507.6800, -88.405
1507.7000,-210.000
1507.7200, -83.616
1507.7400,-210.000
1507.7600, -83.356
1507.7800, -86.701
1507.8000,-210.000
1507.8200, -84.194
1507.8400,-210.000
1507.8600, -83.000
1507.8800,-210.000
1507.9000,-210.000
1507.9200, -87.115
1507.9400, -94.768
1507.9600, -84.479
1507.9800, -84.251
1508.0000, -93.549
1508.0200,-210.000
1508.0400,-210.000
1508.0600, -84.632
1508.0800, -88.931
1508.1000,-210.000
1508.1200, -86.939
1508.1400, -83.101
1508.1600,-210.000
1508.1800, -87.909
1508.2000, -84.631
1508.2200,-210.000
1508.2400, -84.581
1508.2600, -86.616
1508.2800,-104.815
1508.3000, -88.757
1508.3200, -86.603
1508.3400, -84.911
1508.3600,-210.000
1508.3800, -89.161
1508.4000, -95.490
1508.4200, -85.433
1508.4400, -85.715
1508.4600, -87.161
1508.4800, -89.345
1508.5000, -88.537
1508.5200,-210.000
1508.5400, -92.699
1508.5600, -84.102
1508.5800, -86.472
1508.6000,-210.000
1508.6200, -84.127
1508.6400, -88.582
1508.6600, -93.100
1508.6800,-210.000
1508.7000, -83.025
1508.7200, -87.074
1508.7400,-210.000
1508.7600, -85.491
1508.7800, -90.257
1508.8000, -89.285
1508.8200, -85.377
1508.8400,-210.000
1508.8600, -82.733
1508.8800, -84.204
1508.9000,-210.000
1508.9200, -83.068
1508.9400, -93.783
1508.9600, -88.999
1508.9800, -92.755
1509.0000, -87.753
1509.0200, -88.025
1509.0400, -97.613
1509.0600, -96.325
1509.0800, -90.510
1509.1000, -83.666
1509.1200, -88.931
1509.1400, -83.710
1509.1600, -84.086
1509.1800, -88.080
1509.2000, -94.158
1509.2200, -90.120
1509.2400, -85.513
1509.2600, -85.131
1509.2800, -90.424
1509.3000, -89.479
1509.3200, -94.087
1509.3400,-210.000
1509.3600,-210.000
1509.3800, -82.096
1509.4000,-210.000
1509.4200, -85.272
1509.4400, -85.837
1509.4600,-210.000
1509.4800,-210.000
1509.5000, -84.941
1509.5200, -85.511
1509.5400, -83.911
1509.5600, -87.776
1509.5800, -86.890
1509.6000, -93.402
1509.6200,-210.000
1509.6400, -88.481
1509.6600, -95.706
1509.6800, -92.352
1509.7000, -83.592
1509.7200, -93.250
1509.7400, -85.309
1509.7600,-210.000
1509.7800, -83.622
1509.8000, -84.219
1509.8200, -91.631
1509.8400, -87.284
1509.8600, -87.160
1509.8800,-210.000
1509.9000, -88.846
1509.9200, -82.695
1509.9400, -90.371
1509.9600,-210.000
1509.9800,-210.000
1510.0000, -92.510
1510.0200, -87.018
1510.0400, -82.320
1510.0600,-210.000
1510.0800,-210.000
1510.1000, -86.797
1510.1200, -84.094
1510.1400, -98.589
1510.1600,-210.000
1510.1800, -82.741
1510.2000, -84.432
1510.2200,-210.000
1510.2400,-210.000
1510.2600, -86.856
1510.2800, -90.259
1510.3000, -86.239
1510.3200,-210.000
1510.3400, -82.908
1510.3600, -84.088
1510.3800, -88.139
1510.4000, -87.837
1510.4200, -84.875
1510.4400,-106.303
1510.4600,-210.000
1510.4800, -83.414
1510.5000, -94.466
1510.5200, -89.722
1510.5400, -84.641
1510.5600, -88.416
1510.5800,-210.000
1510.6000,-210.000
1510.6200, -83.525
1510.6400,-210.000
1510.6600, -85.244
1510.6800, -84.248
1510.7000,-210.000
1510.7200, -83.325
1510.7400, -89.776
1510.7600, -87.269
1510.7800, -90.589
1510.8000,-210.000
1510.8200, -82.652
1510.8400,-210.000
1510.8600,-210.000
1510.8800,-102.263
1510.9000, -88.068
1510.9200,-210.000
1510.9400, -86.491
1510.9600, -85.266
1510.9800, -99.868
1511.0000,-210.000
1511.0200, -88.660
1511.0400, -85.830
1511.0600, -86.724
1511.0800, -87.845
1511.1000, -87.995
1511.1200, -92.246
1511.1400,-210.000
1511.1600, -83.038
1511.1800, -82.619
1511.2000, -85.422
1511.2200, -85.637
1511.2400,-210.000
1511.2600, -84.984
1511.2800, -84.693
1511.3000, -87.518
1511.3200, -86.070
1511.3400,-210.000
1511.3600, -88.848
1511.3800,-210.000
1511.4000, -83.116
1511.4200, -85.794
1511.4400, -93.391
1511.4600,-210.000
1511.4800, -86.185
1511.5000, -84.849
1511.5200,-210.000
1511.5400, -81.464
1511.5600,-210.000
1511.5800, -90.172
1511.6000, -87.384
1511.6200, -86.246
1511.6400, -95.217
1511.6600,-210.000
1511.6800,-210.000
1511.7000,-210.000
1511.7200, -85.789
1511.7400,-210.000
1511.7600, -80.550
1511.7800, -82.664
1511.8000, -85.581
1511.8200, -91.522
1511.8400, -87.444
1511.8600, -90.679
1511.8800,-210.000
1511.9000, -84.337
1511.9200, -83.895
1511.9400,-210.000
1511.9600,-210.000
1511.9800, -86.167
1512.0000,-210.000
1512.0200, -87.674
1512.0400,-210.000
1512.0600, -93.202
1512.0800, -80.461
1512.1000, -83.853
1512.1200, -91.614
1512.1400, -85.537
1512.1600,-210.000
1512.1800, -82.329
1512.2000, -93.830
1512.2200, -85.481
1512.2400,-210.000
1512.2600, -87.419
1512.2800, -82.838
1512.3000,-210.000
1512.3200, -84.415
1512.3400,-210.000
1512.3600, -98.211
1512.3800,-210.000
1512.4000, -82.242
1512.4200, -85.181
1512.4400,-210.000
1512.4600, -82.779
1512.4800, -96.963
1512.5000, -85.478
1512.5200,-210.000
1512.5400, -81.328
1512.5600,-210.000
1512.5800, -83.354
1512.6000,-109.746
1512.6200, -97.675
1512.6400, -86.820
1512.6600, -89.385
1512.6800,-210.000
1512.7000, -86.601
1512.7200, -86.260
1512.7400, -87.308
1512.7600, -84.993
1512.7800,-210.000
1512.8000, -82.735
1512.8200, -81.824
1512.8400, -83.639
1512.8600,-210.000
1512.8800,-210.000
1512.9000, -85.721
1512.9200,-210.000
1512.9400, -85.753
1512.9600, -90.430
1512.9800,-210.000
1513.0000, -88.306
1513.0200, -89.492
1513.0400, -84.071
1513.0600,-210.000
1513.0800, -85.569
1513.1000, -82.021
1513.1200,-210.000
1513.1400, -85.039
1513.1600, -82.822
1513.1800,-210.000
1513.2000, -84.932
1513.2200,-210.000
1513.2400,-103.764
1513.2600,-210.000
1513.2800, -88.408
1513.3000, -83.463
1513.3200, -81.253
1513.3400,-210.000
1513.3600, -84.678
1513.3800, -89.898
1513.4000,-210.000
1513.4200, -81.634
1513.4400,-210.000
1513.4600,-210.000
1513.4800, -85.596
1513.5000,-210.000
1513.5200,-210.000
1513.5400, -82.449
1513.5600,-210.000
1513.5800, -83.589
1513.6000,-210.000
1513.6200, -85.378
1513.6400,-210.000
1513.6600, -82.137
1513.6800,-210.000
1513.7000,-210.000
1513.7200, -87.559
1513.7400, -87.834
1513.7600, -84.383
1513.7800, -86.376
1513.8000, -82.591
1513.8200,-210.000
1513.8400, -94.873
1513.8600, -87.394
1513.8800, -86.336
1513.9000,-210.000
1513.9200, -85.485
1513.9400,-210.000
1513.9600, -86.288
1513.9800,-210.000
1514.0000, -86.084
1514.0200,-210.000
1514.0400, -82.605
1514.0600, -83.417
1514.0800, -85.885
1514.1000,-210.000
1514.1200, -84.776
1514.1400, -85.724
1514.1600,-210.000
1514.1800, -86.027
1514.2000,-101.679
1514.2200, -89.758
1514.2400, -81.503
1514.2600,-210.000
1514.2800, -85.898
1514.3000, -86.975
1514.3200, -93.313
1514.3400,-210.000
1514.3600, -86.239
1514.3800, -88.726
1514.4000,-210.000
1514.4200, -86.338
1514.4400, -85.747
1514.4600, -93.957
1514.4800,-210.000
1514.5000,-101.906
1514.5200, -84.107
1514.5400, -91.952
1514.5600,-210.000
1514.5800, -80.482
1514.6000,-210.000
1514.6200, -85.802
1514.6400, -95.374
1514.6600, -82.612
1514.6800, -88.185
1514.7000, -86.667
1514.7200,-210.000
1514.7400, -84.523
1514.7600, -90.229
1514.7800, -84.275
1514.8000, -88.215
1514.8200, -86.202
1514.8400,-210.000
1514.8600, -86.625
1514.8800, -89.134
1514.9000, -83.172
1514.9200,-210.000
1514.9400, -83.613
1514.9600,-210.000
1514.9800,-210.000
1515.0000, -84.740
1515.0200,-210.000
1515.0400, -87.480
1515.0600, -89.040
1515.0800, -87.867
1515.1000,-210.000
1515.1200, -82.897
1515.1400, -97.895
1515.1600, -82.889
1515.1800,-210.000
1515.2000, -85.502
1515.2200,-210.000
1515.2400, -84.416
1515.2600, -96.789
1515.2800, -89.974
1515.3000,-210.000
1515.3200, -83.565
1515.3400, -86.211
1515.3600, -88.746
1515.3800, -87.181
1515.4000, -85.904
1515.4200,-210.000
1515.4400,-210.000
1515.4600, -86.197
1515.4800, -86.250
1515.5000, -82.604
1515.5200,-210.000
1515.5400, -86.516
1515.5600, -97.370
1515.5800,-210.000
1515.6000, -85.916
1515.6200, -91.451
1515.6400, -92.834
1515.6600, -94.703
1515.6800, -87.341
1515.7000, -88.879
1515.7200,-210.000
1515.7400,-210.000
1515.7600, -86.933
1515.7800,-210.000
1515.8000,-210.000
1515.8200, -82.395
1515.8400,-210.000
1515.8600,-210.000
1515.8800, -82.150
1515.9000, -83.020
1515.9200,-210.000
1515.9400, -83.813
1515.9600,-210.000
1515.9800, -88.169
1516.0000,-210.000
1516.0200, -85.721
1516.0400,-210.000
1516.0600, -84.018
1516.0800, -84.408
1516.1000, -85.293
1516.1200, -89.955
1516.1400, -84.273
1516.1600, -85.355
1516.1800,-210.000
1516.2000,-210.000
1516.2200, -82.660
1516.2400, -92.160
1516.2600,-210.000
1516.2800, -84.182
1516.3000, -82.428
1516.3200,-210.000
1516.3400, -86.996
1516.3600, -86.132
1516.3800,-210.000
1516.4000, -82.832
1516.4200, -95.288
1516.4400, -85.876
1516.4600,-210.000
1516.4800, -86.634
1516.5000, -83.171
1516.5200, -97.045
1516.5400, -90.674
1516.5600, -87.311
1516.5800,-210.000
1516.6000,-210.000
1516.6200, -85.220
1516.6400,-210.000
1516.6600, -84.844
1516.6800, -85.347
1516.7000,-210.000
1516.7200, -82.897
1516.7400, -88.536
1516.7600,-210.000
1516.7800, -90.965
1516.8000, -85.152
1516.8200, -87.576
1516.8400,-210.000
1516.8600, -83.558
1516.8800,-210.000
1516.9000, -89.400
1516.9200,-210.000
1516.9400, -83.283
1516.9600,-210.000
1516.9800, -81.381
1517.0000,-210.000
1517.0200,-210.000
1517.0400, -81.226
1517.0600,-210.000
1517.0800,-210.000
1517.1000,-210.000
1517.1200,-210.000
1517.1400, -83.379
1517.1600, -92.895
1517.1800, -85.448
1517.2000, -85.435
1517.2200,-210.000
1517.2400, -85.919
1517.2600,-210.000
1517.2800, -86.014
1517.3000,-210.000
1517.3200, -89.678
1517.3400, -86.467
1517.3600, -83.764
1517.3800, -84.691
1517.4000, -84.349
1517.4200, -89.065
1517.4400, -94.220
1517.4600, -88.151
1517.4800,-210.000
1517.5000, -86.588
1517.5200, -87.356
1517.5400,-210.000
1517.5600, -93.918
1517.5800, -86.096
1517.6000,-210.000
1517.6200, -87.021
1517.6400,-210.000
1517.6600, -83.552
1517.6800,-210.000
1517.7000, -83.145
1517.7200,-210.000
1517.7400, -85.242
1517.7600,-210.000
1517.7800, -84.781
1517.8000,-103.770
1517.8200, -88.078
1517.8400, -86.627
1517.8600, -84.293
1517.8800, -87.350
1517.9000,-210.000
1517.9200, -85.834
1517.9400, -90.136
1517.9600, -87.965
1517.9800, -84.610
1518.0000,-210.000
1518.0200, -87.878
1518.0400, -81.804
1518.0600, -87.231
1518.0800, -91.137
1518.1000, -83.790
1518.1200, -95.299
1518.1400, -83.924
1518.1600, -90.269
1518.1800,-210.000
1518.2000,-210.000
1518.2200, -85.812
1518.2400, -83.906
1518.2600, -82.126
1518.2800,-210.000
1518.3000, -86.673
1518.3200,-210.000
1518.3400, -87.182
1518.3600,-210.000
1518.3800, -84.671
1518.4000, -93.760
1518.4200,-210.000
1518.4400, -87.277
1518.4600,-210.000
1518.4800, -88.780
1518.5000, -85.488
1518.5200, -89.328
1518.5400, -87.923
1518.5600, -85.780
1518.5800, -94.397
1518.6000, -88.769
1518.6200,-210.000
1518.6400, -93.155
1518.6600, -85.688
1518.6800, -85.213
1518.7000,-210.000
1518.7200, -85.541
1518.7400, -89.742
1518.7600, -84.768
1518.7800, -85.779
1518.8000, -83.954
1518.8200, -88.672
1518.8400,-210.000
1518.8600,-210.000
1518.8800, -81.812
1518.9000, -85.090
1518.9200,-210.000
1518.9400, -79.333
1518.9600, -92.282
1518.9800, -90.618
1519.0000, -89.873
1519.0200, -81.866
1519.0400,-210.000
1519.0600, -88.987
1519.0800, -96.322
1519.1000, -85.574
1519.1200,-210.000
1519.1400, -90.881
1519.1600,-210.000
1519.1800, -83.962
1519.2000,-210.000
1519.2200, -83.740
1519.2400,-210.000
1519.2600,-210.000
1519.2800, -85.979
1519.3000, -84.579
1519.3200, -82.930
1519.3400, -85.497
1519.3600, -83.584
1519.3800, -90.015
1519.4000,-210.000
1519.4200,-210.000
1519.4400, -82.649
1519.4600, -86.507
1519.4800,-210.000
1519.5000, -88.468
1519.5200, -84.992
1519.5400,-210.000
1519.5600, -81.807
1519.5800,-210.000
1519.6000,-210.000
1519.6200, -81.361
1519.6400,-210.000
1519.6600, -84.089
1519.6800, -84.417
1519.7000,-210.000
1519.7200,-210.000
1519.7400, -90.488
1519.7600,-210.000
1519.7800, -87.413
1519.8000,-210.000
1519.8200, -81.447
1519.8400, -83.539
1519.8600, -86.560
1519.8800, -92.384
1519.9000,-210.000
1519.9200, -90.588
1519.9400, -99.102
1519.9600,-210.000
1519.9800, -97.780
1520.0000,-210.000
1520.0200, -81.211
1520.0400,-210.000
1520.0600, -89.483
1520.0800, -84.598
1520.1000, -87.251
1520.1200, -91.606
1520.1400, -86.639
1520.1600,-210.000
1520.1800, -84.743
1520.2000, -97.062
1520.2200, -86.219
1520.2400, -83.813
1520.2600,-210.000
1520.2800, -82.131
1520.3000, -85.606
1520.3200,-210.000
1520.3400, -83.143
1520.3600, -83.531
1520.3800, -94.063
1520.4000, -86.815
1520.4200, -84.900
1520.4400,-210.000
1520.4600,-210.000
1520.4800, -80.775
1520.5000, -86.204
1520.5200, -91.929
1520.5400, -90.114
1520.5600,-210.000
1520.5800, -86.997
1520.6000,-210.000
1520.6200,-210.000
1520.6400, -83.158
1520.6600,-210.000
1520.6800, -93.809
1520.7000, -83.496
1520.7200, -91.576
1520.7400, -86.915
1520.7600,-210.000
1520.7800, -85.109
1520.8000, -85.503
1520.8200, -84.479
1520.8400,-210.000
1520.8600, -94.140
1520.8800, -82.843
1520.9000,-210.000
1520.9200,-210.000
1520.9400, -85.157
1520.9600,-210.000
1520.9800,-210.000
1521.0000, -82.616
1521.0200, -87.895
1521.0400, -87.298
1521.0600,-210.000
1521.0800, -81.615
1521.1000,-210.000
1521.1200,-210.000
1521.1400, -84.267
1521.1600,-210.000
1521.1800, -84.615
1521.2000,-210.000
1521.2200, -81.413
1521.2400,-210.000
1521.2600, -83.111
1521.2800,-210.000
1521.3000, -85.232
1521.3200,-210.000
1521.3400, -95.984
1521.3600, -84.188
1521.3800, -84.009
1521.4000,-210.000
1521.4200, -93.712
1521.4400, -89.101
1521.4600, -86.868
1521.4800, -85.705
1521.5000,-210.000
1521.5200, -84.998
1521.5400, -84.271
1521.5600,-210.000
1521.5800, -88.205
1521.6000, -99.016
1521.6200, -87.079
1521.6400, -87.491
1521.6600, -85.404
1521.6800,-210.000
1521.7000,-210.000
1521.7200, -84.067
1521.7400, -89.817
1521.7600, -89.647
1521.7800, -94.046
1521.8000, -89.845
1521.8200, -85.511
1521.8400,-210.000
1521.8600,-210.000
1521.8800,-210.000
1521.9000,-210.000
1521.9200, -85.384
1521.9400,-210.000
1521.9600, -85.967
1521.9800, -87.792
1522.0000, -87.894
1522.0200, -83.978
1522.0400, -84.401
1522.0600, -90.198
1522.0800, -95.657
1522.1000, -86.847
1522.1200, -85.370
1522.1400, -90.732
1522.1600, -83.753
1522.1800,-210.000
1522.2000, -85.429
1522.2200, -91.086
1522.2400, -82.993
1522.2600,-210.000
1522.2800, -92.321
1522.3000, -85.113
1522.3200, -87.180
1522.3400, -84.118
1522.3600, -96.035
1522.3800,-210.000
1522.4000, -92.366
1522.4200, -86.861
1522.4400, -88.200
1522.4600,-210.000
1522.4800, -87.312
1522.5000, -84.760
1522.5200,-210.000
1522.5400, -83.819
1522.5600, -85.910
1522.5800, -82.511
1522.6000,-210.000
1522.6200, -90.198
1522.6400,-210.000
1522.6600, -85.523
1522.6800, -88.161
1522.7000,-210.000
1522.7200, -88.280
1522.7400, -85.805
1522.7600, -85.718
1522.7800, -88.921
1522.8000, -90.390
1522.8200, -83.052
1522.8400, -88.013
1522.8600, -87.369
1522.8800, -87.996
1522.9000, -95.122
1522.9200, -85.583
1522.9400, -85.929
1522.9600, -84.004
1522.9800, -84.686
1523.0000, -85.773
1523.0200,-210.000
1523.0400, -85.188
1523.0600, -85.605
1523.0800, -86.667
1523.1000, -93.441
1523.1200, -86.618
1523.1400, -84.600
1523.1600,-210.000
1523.1800, -86.553
1523.2000, -84.280
1523.2200, -84.976
1523.2400, -84.364
1523.2600, -88.008
1523.2800, -86.611
1523.3000, -85.159
1523.3200,-210.000
1523.3400, -86.647
1523.3600, -86.439
1523.3800, -88.977
1523.4000,-210.000
1523.4200, -90.384
1523.4400, -81.833
1523.4600,-210.000
1523.4800, -84.154
1523.5000,-210.000
1523.5200, -84.467
1523.5400, -96.086
1523.5600,-210.000
1523.5800,-210.000
1523.6000, -86.307
1523.6200, -86.076
1523.6400, -83.213
1523.6600,-210.000
1523.6800, -89.675
1523.7000, -86.907
1523.7200, -90.368
1523.7400, -81.769
1523.7600,-105.372
1523.7800,-210.000
1523.8000, -84.186
1523.8200, -85.732
1523.8400, -92.671
1523.8600,-210.000
1523.8800, -87.981
1523.9000, -88.325
1523.9200, -84.174
1523.9400, -93.260
1523.9600,-210.000
1523.9800, -85.199
1524.0000, -84.744
1524.0200, -89.592
1524.0400, -88.581
1524.0600, -90.224
1524.0800, -87.183
1524.1000, -88.568
1524.1200,-210.000
1524.1400,-210.000
1524.1600, -86.793
1524.1800, -87.059
1524.2000, -82.898
1524.2200, -85.670
1524.2400, -92.691
1524.2600, -97.400
1524.2800,-210.000
1524.3000, -82.527
1524.3200, -87.637
1524.3400,-210.000
1524.3600, -86.092
1524.3800, -86.290
1524.4000, -91.014
1524.4200,-210.000
1524.4400, -87.695
1524.4600,-210.000
1524.4800, -83.783
1524.5000, -83.029
1524.5200, -90.339
1524.5400,-210.000
1524.5600, -86.979
1524.5800, -88.306
1524.6000, -88.465
1524.6200, -86.372
1524.6400, -82.926
1524.6600,-210.000
1524.6800, -84.442
1524.7000, -84.559
1524.7200, -84.614
1524.7400, -93.212
1524.7600, -95.435
1524.7800, -85.960
1524.8000, -90.351
1524.8200,-210.000
1524.8400, -86.016
1524.8600, -84.795
1524.8800, -86.632
1524.9000,-210.000
1524.9200, -93.489
1524.9400, -83.119
1524.9600, -84.195
1524.9800,-210.000
1525.0000,-210.000
1525.0200, -85.708
1525.0400,-210.000
1525.0600,-210.000
1525.0800, -84.563
1525.1000,-210.000
1525.1200, -86.504
1525.1400, -82.684
1525.1600,-210.000
1525.1800, -83.044
1525.2000,-210.000
1525.2200, -81.930
1525.2400,-210.000
1525.2600, -87.160
1525.2800, -91.050
1525.3000, -87.145
1525.3200, -83.878
1525.3400,-210.000
1525.3600, -83.823
1525.3800, -86.643
1525.4000, -86.959
1525.4200,-210.000
1525.4400, -84.689
1525.4600,-210.000
1525.4800, -84.492
1525.5000, -87.085
1525.5200,-210.000
1525.5400,-210.000
1525.5600, -88.382
1525.5800, -83.797
1525.6000, -91.086
1525.6200, -86.239
1525.6400,-210.000
1525.6600, -93.876
1525.6800, -83.666
1525.7000,-210.000
1525.7200, -86.824
1525.7400, -87.035
1525.7600, -87.493
1525.7800, -87.385
1525.8000, -89.011
1525.8200,-105.074
1525.8400, -86.085
1525.8600, -87.924
1525.8800,-210.000
1525.9000, -83.097
1525.9200,-210.000
1525.9400, -85.006
1525.9600,-210.000
1525.9800, -86.322
1526.0000, -88.342
1526.0200, -84.007
1526.0400, -91.986
1526.0600, -86.944
1526.0800, -84.317
1526.1000,-210.000
1526.1200,-210.000
1526.1400, -82.115
1526.1600, -85.426
1526.1800,-210.000
1526.2000, -85.419
1526.2200,-210.000
1526.2400, -91.202
1526.2600, -86.164
1526.2800,-210.000
1526.3000, -88.387
1526.3200, -90.224
1526.3400,-210.000
1526.3600, -90.783
1526.3800, -86.444
1526.4000, -90.875
1526.4200, -83.269
1526.4400, -85.299
1526.4600, -92.702
1526.4800,-210.000
1526.5000,-210.000
1526.5200,-210.000
1526.5400, -84.580
1526.5600, -85.618
1526.5800, -96.048
1526.6000, -85.627
1526.6200,-210.000
1526.6400, -86.336
1526.6600, -89.445
1526.6800,-210.000
1526.7000, -84.660
1526.7200, -85.331
1526.7400,-210.000
1526.7600,-102.524
1526.7800,-210.000
1526.8000,-210.000
1526.8200, -88.408
1526.8400, -81.590
1526.8600, -92.164
1526.8800,-210.000
1526.9000, -84.234
1526.9200, -85.772
1526.9400, -82.964
1526.9600,-105.296
1526.9800, -89.968
1527.0000, -84.077
1527.0200,-210.000
1527.0400, -84.799
1527.0600, -88.187
1527.0800,-210.000
1527.1000, -86.798
1527.1200,-210.000
1527.1400, -88.972
1527.1600, -91.388
1527.1800,-210.000
1527.2000, -87.033
1527.2200,-100.611
1527.2400, -82.178
1527.2600, -89.812
1527.2800, -94.879
1527.3000, -82.536
1527.3200, -85.381
1527.3400,-210.000
1527.3600, -86.335
1527.3800, -88.496
1527.4000, -83.651
1527.4200, -92.531
1527.4400, -87.580
1527.4600, -83.198
1527.4800,-210.000
1527.5000, -87.766
1527.5200, -84.468
1527.5400, -86.933
1527.5600, -90.880
1527.5800, -93.762
1527.6000, -84.142
1527.6200, -85.043
1527.6400, -85.159
1527.6600,-210.000
1527.6800, -83.654
1527.7000,-210.000
1527.7200, -97.994
1527.7400, -84.078
1527.7600,-210.000
1527.7800, -83.040
1527.8000,-210.000
1527.8200, -83.774
1527.8400, -84.904
1527.8600,-210.000
1527.8800, -85.864
1527.9000,-210.000
1527.9200, -81.392
1527.9400,-210.000
1527.9600, -88.755
1527.9800, -83.685
1528.0000, -88.453
1528.0200, -86.356
1528.0400, -90.066
1528.0600, -85.060
1528.0800, -85.892
1528.1000,-210.000
1528.1200, -84.475
1528.1400, -85.737
1528.1600,-210.000
1528.1800, -83.718
1528.2000,-210.000
1528.2200, -84.868
1528.2400, -86.710
1528.2600,-210.000
1528.2800, -86.783
1528.3000, -86.574
1528.3200, -83.445
1528.3400, -85.766
1528.3600, -85.678
1528.3800,-210.000
1528.4000,-210.000
1528.4200, -89.084
1528.4400, -88.173
1528.4600, -87.620
1528.4800, -89.076
1528.5000, -92.490
1528.5200, -89.259
1528.5400,-210.000
1528.5600, -87.290
1528.5800, -86.738
1528.6000, -87.781
1528.6200, -85.525
1528.6400,-101.798
1528.6600, -90.755
1528.6800, -89.964
1528.7000, -87.413
1528.7200, -92.853
1528.7400, -85.232
1528.7600,-210.000
1528.7800, -90.061
1528.8000, -91.502
1528.8200, -83.251
1528.8400, -91.584
1528.8600, -84.628
1528.8800, -85.756
1528.9000,-210.000
1528.9200, -85.842
1528.9400, -88.452
1528.9600, -83.960
1528.9800, -87.794
1529.0000, -87.027
1529.0200, -84.659
1529.0400,-210.000
1529.0600, -90.345
1529.0800, -83.854
1529.1000,-210.000
1529.1200, -89.172
1529.1400, -92.854
1529.1600, -91.896
1529.1800, -90.560
1529.2000,-210.000
1529.2200, -87.324
1529.2400, -87.067
1529.2600, -85.037
1529.2800,-210.000
1529.3000, -87.990
1529.3200,-210.000
1529.3400,-210.000
1529.3600, -89.565
1529.3800, -97.513
1529.4000, -83.803
1529.4200,-210.000
1529.4400, -82.246
1529.4600, -88.775
1529.4800,-210.000
1529.5000, -91.183
1529.5200, -84.791
1529.5400,-210.000
1529.5600,-210.000
1529.5800, -87.652
1529.6000, -87.031
1529.6200, -84.996
1529.6400, -97.716
1529.6600,-210.000
1529.6800, -87.058
1529.7000,-210.000
1529.7200, -86.501
1529.7400, -89.363
1529.7600, -87.463
1529.7800, -91.100
1529.8000, -84.688
1529.8200, -85.066
1529.8400,-210.000
1529.8600, -86.066
1529.8800,-210.000
1529.9000, -83.861
1529.9200,-210.000
1529.9400, -84.336
1529.9600,-100.247
1529.9800,-210.000
1530.0000, -82.129
1530.0200, -87.861
1530.0400,-210.000
1530.0600, -80.569
1530.0800,-210.000
1530.1000, -93.770
1530.1200, -82.832
1530.1400,-210.000
1530.1600, -82.125
1530.1800, -88.652
1530.2000, -81.871
1530.2200, -91.680
1530.2400,-210.000
1530.2600, -88.995
1530.2800, -85.041
1530.3000,-210.000
1530.3200, -90.211
1530.3400, -85.467
1530.3600,-210.000
1530.3800, -88.378
1530.4000, -84.372
1530.4200, -88.895
1530.4400,-210.000
1530.4600,-210.000
1530.4800, -81.546
1530.5000, -86.544
1530.5200, -88.332
1530.5400,-210.000
1530.5600, -86.380
1530.5800, -94.297
1530.6000,-210.000
1530.6200,-210.000
1530.6400,-210.000
1530.6600, -81.871
1530.6800, -83.521
1530.7000, -83.245
1530.7200,-210.000
1530.7400,-210.000
1530.7600, -86.993
1530.7800, -85.376
1530.8000, -94.301
1530.8200, -83.045
1530.8400, -87.987
1530.8600, -88.323
1530.8800, -86.948
1530.9000,-210.000
1530.9200,-210.000
1530.9400,-210.000
1530.9600, -84.953
1530.9800, -86.683
1531.0000, -87.484
1531.0200, -96.222
1531.0400,-210.000
1531.0600, -91.914
1531.0800, -91.001
1531.1000,-210.000
1531.1200, -85.028
1531.1400, -85.097
1531.1600,-210.000
1531.1800, -91.233
1531.2000, -85.776
1531.2200, -84.074
1531.2400,-210.000
1531.2600, -84.110
1531.2800,-210.000
1531.3000, -96.395
1531.3200,-210.000
1531.3400,-210.000
1531.3600, -83.947
1531.3800, -81.617
1531.4000,-210.000
1531.4200, -93.436
1531.4400,-210.000
1531.4600, -85.143
1531.4800,-210.000
1531.5000, -80.538
1531.5200,-210.000
1531.5400, -80.995
1531.5600,-210.000
1531.5800,-210.000
1531.6000, -82.308
1531.6200,-210.000
1531.6400, -86.053
1531.6600, -84.033
1531.6800,-210.000
1531.7000, -82.829
1531.7200, -83.753
1531.7400, -86.129
1531.7600, -88.054
1531.7800,-210.000
1531.8000, -89.214
1531.8200, -99.944
1531.8400,-105.129
1531.8600,-210.000
1531.8800, -89.693
1531.9000, -92.511
1531.9200,-210.000
1531.9400, -81.531
1531.9600, -93.836
1531.9800, -90.739
1532.0000,-210.000
1532.0200, -85.526
1532.0400, -81.296
1532.0600, -91.203
1532.0800,-210.000
1532.1000, -86.039
1532.1200, -85.435
1532.1400, -87.866
1532.1600, -88.403
1532.1800, -88.484
1532.2000, -94.538
1532.2200,-210.000
1532.2400,-210.000
1532.2600, -88.345
1532.2800,-210.000
1532.3000, -88.208
1532.3200, -93.553
1532.3400, -82.307
1532.3600, -90.542
1532.3800, -90.852
1532.4000,-210.000
1532.4200, -83.564
1532.4400, -82.608
1532.4600, -88.291
1532.4800,-210.000
1532.5000,-210.000
1532.5200, -81.702
1532.5400, -86.640
1532.5600,-210.000
1532.5800, -86.431
1532.6000,-210.000
1532.6200, -85.460
1532.6400, -83.364
1532.6600, -91.600
1532.6800, -91.590
1532.7000,-210.000
1532.7200, -84.135
1532.7400, -84.750
1532.7600, -87.515
1532.7800, -95.834
1532.8000, -96.383
1532.8200, -88.349
1532.8400, -82.415
1532.8600, -88.074
1532.8800,-210.000
1532.9000, -87.276
1532.9200, -86.241
1532.9400, -91.265
1532.9600, -83.428
1532.9800, -88.358
1533.0000, -85.876
1533.0200, -83.819
1533.0400, -88.851
1533.0600, -87.345
1533.0800, -89.111
1533.1000, -90.289
1533.1200,-210.000
1533.1400,-210.000
1533.1600, -90.652
1533.1800, -81.277
1533.2000,-210.000
1533.2200, -81.702
1533.2400, -84.851
1533.2600, -84.245
1533.2800, -85.986
1533.3000,-210.000
1533.3200, -85.063
1533.3400, -86.883
1533.3600, -84.385
1533.3800, -89.986
1533.4000, -95.837
1533.4200, -87.227
1533.4400, -87.057
1533.4600, -82.467
1533.4800, -91.533
1533.5000, -86.711
1533.5200, -86.294
1533.5400,-210.000
1533.5600, -86.708
1533.5800, -89.397
1533.6000, -82.962
1533.6200, -84.530
1533.6400,-210.000
1533.6600, -85.992
1533.6800,-210.000
1533.7000, -89.847
1533.7200,-210.000
1533.7400, -80.424
1533.7600, -88.106
1533.7800, -93.687
1533.8000, -85.205
1533.8200, -86.678
1533.8400,-210.000
1533.8600, -92.370
1533.8800, -81.538
1533.9000, -85.986
1533.9200, -84.577
1533.9400, -90.118
1533.9600,-210.000
1533.9800, -88.589
1534.0000, -81.804
1534.0200, -86.860
1534.0400,-210.000
1534.0600,-210.000
1534.0800, -85.621
1534.1000, -82.328
1534.1200, -84.080
1534.1400, -88.132
1534.1600, -84.093
1534.1800,-210.000
1534.2000,-210.000
1534.2200,-210.000
1534.2400, -86.828
1534.2600, -82.479
1534.2800, -85.638
1534.3000, -87.294
1534.3200, -86.079
1534.3400, -90.888
1534.3600,-210.000
1534.3800, -82.547
1534.4000,-210.000
1534.4200, -80.776
1534.4400,-210.000
1534.4600,-210.000
1534.4800, -87.781
1534.5000, -94.720
1534.5200, -82.947
1534.5400, -85.153
1534.5600, -83.008
1534.5800, -83.710
1534.6000,-210.000
1534.6200,-210.000
1534.6400,-210.000
1534.6600, -90.919
1534.6800, -96.266
1534.7000, -83.130
1534.7200, -84.315
1534.7400,-210.000
1534.7600, -84.483
1534.7800,-210.000
1534.8000, -88.456
1534.8200, -87.587
1534.8400, -82.924
1534.8600, -87.591
1534.8800,-210.000
1534.9000, -81.300
1534.9200,-210.000
1534.9400, -82.461
1534.9600, -94.193
1534.9800,-210.000
1535.0000, -85.356
1535.0200, -84.823
1535.0400, -85.308
1535.0600, -85.683
1535.0800, -91.770
1535.1000, -84.791
1535.1200,-210.000
1535.1400, -87.896
1535.1600, -88.062
1535.1800,-210.000
1535.2000, -93.731
1535.2200,-210.000
1535.2400,-210.000
1535.2600, -85.480
1535.2800,-210.000
1535.3000, -83.169
1535.3200,-210.000
1535.3400,-210.000
1535.3600, -82.947
1535.3800, -87.386
1535.4000,-210.000
1535.4200, -85.708
1535.4400,-210.000
1535.4600, -88.396
1535.4800,-210.000
1535.5000, -82.617
1535.5200, -86.757
1535.5400, -85.745
1535.5600,-210.000
1535.5800, -87.097
1535.6000, -86.338
1535.6200,-210.000
1535.6400, -87.432
1535.6600,-210.000
1535.6800, -88.203
1535.7000, -86.623
1535.7200, -86.996
1535.7400, -84.395
1535.7600, -90.869
1535.7800, -83.330
1535.8000,-210.000
1535.8200, -85.882
1535.8400, -88.867
1535.8600,-210.000
1535.8800, -88.803
1535.9000, -84.555
1535.9200,-101.523
1535.9400,-210.000
1535.9600, -93.229
1535.9800,-210.000
1536.0000, -80.701
1536.0200, -84.855
1536.0400, -85.485
1536.0600,-210.000
1536.0800, -82.161
1536.1000,-102.917
1536.1200,-210.000
1536.1400, -83.400
1536.1600, -84.865
1536.1800, -81.865
1536.2000,-210.000
1536.2200, -81.381
1536.2400, -89.465
1536.2600, -86.863
1536.2800,-210.000
1536.3000,-210.000
1536.3200, -83.304
1536.3400, -86.620
1536.3600, -85.796
1536.3800, -90.668
1536.4000, -97.621
1536.4200, -87.123
1536.4400,-210.000
1536.4600, -93.688
1536.4800, -82.692
1536.5000,-210.000
1536.5200,-210.000
1536.5400, -86.987
1536.5600, -90.048
1536.5800,-210.000
1536.6000, -82.560
1536.6200, -84.243
1536.6400, -88.263
1536.6600, -82.475
1536.6800, -85.484
1536.7000, -87.770
1536.7200, -89.940
1536.7400,-210.000
1536.7600, -88.691
1536.7800, -87.602
1536.8000, -90.924
1536.8200,-210.000
1536.8400, -82.149
1536.8600,-210.000
1536.8800, -80.581
1536.9000, -84.228
1536.9200, -92.527
1536.9400, -85.427
1536.9600, -88.264
1536.9800, -83.826
1537.0000, -86.345
1537.0200, -88.074
1537.0400, -86.053
1537.0600,-210.000
1537.0800, -84.511
1537.1000, -83.682
1537.1200, -88.085
1537.1400,-210.000
1537.1600, -90.114
1537.1800, -85.663
1537.2000, -85.678
1537.2200,-210.000
1537.2400, -87.807
1537.2600,-210.000
1537.2800,-210.000
1537.3000,-210.000
1537.3200, -81.618
1537.3400, -85.705
1537.3600, -90.961
1537.3800, -87.631
1537.4000,-210.000
1537.4200, -83.580
1537.4400, -83.757
1537.4600,-210.000
1537.4800,-210.000
1537.5000, -87.803
1537.5200, -84.920
1537.5400, -89.164
1537.5600, -86.908
1537.5800, -85.240
1537.6000, -90.810
1537.6200, -81.789
1537.6400, -85.704
1537.6600,-106.573
1537.6800,-210.000
1537.7000, -88.794
1537.7200, -86.704
1537.7400, -99.400
1537.7600,-210.000
1537.7800,-107.180
1537.8000, -85.082
1537.8200, -84.135
1537.8400, -86.358
1537.8600, -85.769
1537.8800, -86.455
1537.9000, -88.831
1537.9200, -84.041
1537.9400, -84.045
1537.9600, -86.214
1537.9800,-210.000
1538.0000, -89.119
1538.0200, -84.819
1538.0400, -84.490
1538.0600, -86.075
1538.0800, -86.632
1538.1000, -81.741
1538.1200, -94.523
1538.1400, -93.064
1538.1600, -85.697
1538.1800,-210.000
1538.2000, -87.522
1538.2200, -95.120
1538.2400, -88.669
1538.2600, -83.012
1538.2800,-210.000
1538.3000, -91.796
1538.3200, -81.449
1538.3400, -88.208
1538.3600, -84.892
1538.3800,-210.000
1538.4000,-210.000
1538.4200, -83.880
1538.4400, -84.105
1538.4600,-210.000
1538.4800, -82.161
1538.5000,-210.000
1538.5200, -90.823
1538.5400,-210.000
1538.5600, -84.953
1538.5800, -82.231
1538.6000,-210.000
1538.6200, -88.483
1538.6400, -88.395
1538.6600, -89.956
1538.6800, -89.899
1538.7000, -85.127
1538.7200,-210.000
1538.7400, -85.873
1538.7600,-210.000
1538.7800, -83.990
1538.8000, -89.384
1538.8200, -84.885
1538.8400,-102.465
1538.8600,-100.051
1538.8800, -87.284
1538.9000, -83.938
1538.9200, -83.531
1538.9400, -87.981
1538.9600, -89.027
1538.9800, -84.472
1539.0000, -86.004
1539.0200, -94.983
1539.0400, -85.183
1539.0600, -91.316
1539.0800, -89.696
1539.1000, -89.051
1539.1200, -83.417
1539.1400, -86.378
1539.1600, -86.097
1539.1800, -86.791
1539.2000, -94.547
1539.2200, -90.527
1539.2400, -93.002
1539.2600, -89.264
1539.2800, -84.891
1539.3000, -89.110
1539.3200,-210.000
1539.3400, -85.215
1539.3600,-210.000
1539.3800, -85.143
1539.4000, -88.549
1539.4200, -84.588
1539.4400, -82.659
1539.4600, -87.729
1539.4800,-210.000
1539.5000, -89.195
1539.5200,-210.000
1539.5400, -82.659
1539.5600,-210.000
1539.5800, -82.376
1539.6000, -88.079
1539.6200, -96.242
1539.6400, -89.748
1539.6600, -90.039
1539.6800, -91.748
1539.7000, -92.834
1539.7200, -87.431
1539.7400, -91.609
1539.7600, -83.807
1539.7800, -87.529
1539.8000, -94.565
1539.8200, -83.295
1539.8400,-210.000
1539.8600,-100.645
1539.8800, -98.462
1539.9000, -84.020
1539.9200,-210.000
1539.9400, -87.797
1539.9600, -85.766
1539.9800, -83.972
1540.0000, -84.596
1540.0200, -89.204
1540.0400, -84.212
1540.0600,-210.000
1540.0800, -87.728
1540.1000,-210.000
1540.1200, -91.413
1540.1400,-210.000
1540.1600, -81.800
1540.1800, -89.706
1540.2000,-210.000
1540.2200, -90.197
1540.2400, -84.876
1540.2600, -87.438
1540.2800, -95.902
1540.3000, -84.308
1540.3200, -86.705
1540.3400,-210.000
1540.3600, -84.018
1540.3800, -83.737
1540.4000,-210.000
1540.4200, -91.349
1540.4400, -88.017
1540.4600, -85.155
1540.4800, -96.159
1540.5000,-210.000
1540.5200, -88.526
1540.5400, -84.224
1540.5600,-106.610
1540.5800, -90.365
1540.6000,-210.000
1540.6200,-210.000
1540.6400,-106.432
1540.6600, -84.445
1540.6800, -95.826
1540.7000, -86.663
1540.7200, -84.791
1540.7400, -93.544
1540.7600,-210.000
1540.7800, -84.805
1540.8000, -83.322
1540.8200,-210.000
1540.8400, -93.797
1540.8600,-210.000
1540.8800, -84.018
1540.9000, -94.997
1540.9200, -87.853
1540.9400, -86.017
1540.9600,-104.050
1540.9800, -83.340
1541.0000, -83.104
1541.0200, -96.589
1541.0400, -93.033
1541.0600,-210.000
1541.0800, -86.101
1541.1000, -90.746
1541.1200, -86.371
1541.1400, -98.229
1541.1600, -86.533
1541.1800, -86.738
1541.2000, -85.940
1541.2200, -85.895
1541.2400, -92.184
1541.2600, -84.169
1541.2800,-210.000
1541.3000, -84.989
1541.3200, -95.979
1541.3400,-210.000
1541.3600, -91.505
1541.3800,-210.000
1541.4000, -82.616
1541.4200, -82.617
1541.4400,-210.000
1541.4600,-210.000
1541.4800, -86.794
1541.5000,-105.930
1541.5200, -93.530
1541.5400,-210.000
1541.5600, -85.649
1541.5800, -89.459
1541.6000,-210.000
1541.6200,-210.000
1541.6400, -88.593
1541.6600, -98.244
1541.6800, -87.366
1541.7000, -87.390
1541.7200, -90.870
1541.7400, -87.203
1541.7600, -86.729
1541.7800, -87.901
1541.8000, -83.938
1541.8200, -84.910
1541.8400,-210.000
1541.8600, -84.545
1541.8800, -85.643
1541.9000, -92.531
1541.9200, -84.750
1541.9400, -88.927
1541.9600,-210.000
1541.9800, -84.476
1542.0000, -84.105
1542.0200, -83.903
1542.0400, -88.531
1542.0600, -90.531
1542.0800, -81.901
1542.1000,-210.000
1542.1200, -86.055
1542.1400, -94.091
1542.1600, -92.510
1542.1800, -82.974
1542.2000, -90.523
1542.2200, -84.499
1542.2400,-210.000
1542.2600, -92.154
1542.2800, -93.237
1542.3000, -84.515
1542.3200, -83.189
1542.3400,-210.000
1542.3600, -85.822
1542.3800, -89.672
1542.4000, -82.882
1542.4200, -99.195
1542.4400, -85.428
1542.4600,-210.000
1542.4800, -88.066
1542.5000,-210.000
1542.5200, -86.238
1542.5400,-210.000
1542.5600, -84.722
1542.5800, -96.285
1542.6000, -83.813
1542.6200,-210.000
1542.6400, -82.679
1542.6600, -83.933
1542.6800,-104.088
1542.7000, -84.191
1542.7200, -84.165
1542.7400, -87.678
1542.7600, -96.215
1542.7800,-105.114
1542.8000,-210.000
1542.8200,-210.000
1542.8400, -81.909
1542.8600,-210.000
1542.8800, -94.582
1542.9000, -87.132
1542.9200, -83.255
1542.9400, -86.640
1542.9600,-210.000
1542.9800,-210.000
1543.0000,-210.000
1543.0200,-210.000
1543.0400, -87.562
1543.0600, -91.260
1543.0800,-210.000
1543.1000, -81.612
1543.1200, -88.778
1543.1400, -81.900
1543.1600,-210.000
1543.1800,-210.000
1543.2000, -92.331
1543.2200, -92.422
1543.2400, -88.057
1543.2600, -90.028
1543.2800, -90.717
1543.3000, -83.890
1543.3200,-210.000
1543.3400, -81.744
1543.3600,-210.000
1543.3800,-210.000
1543.4000, -86.909
1543.4200, -83.243
1543.4400,-210.000
1543.4600,-210.000
1543.4800, -81.581
1543.5000, -89.160
1543.5200, -86.252
1543.5400, -84.405
1543.5600,-110.610
1543.5800,-210.000
1543.6000, -82.249
1543.6200,-100.853
1543.6400,-210.000
1543.6600,-210.000
1543.6800,-210.000
1543.7000, -84.721
1543.7200,-210.000
1543.7400, -83.572
1543.7600,-210.000
1543.7800, -83.984
1543.8000, -82.458
1543.8200, -89.311
1543.8400,-210.000
1543.8600,-210.000
1543.8800, -85.369
1543.9000,-210.000
1543.9200, -87.081
1543.9400, -86.965
1543.9600, -90.253
1543.9800, -90.309
1544.0000, -93.647
1544.0200,-210.000
1544.0400, -85.806
1544.0600, -86.354
1544.0800,-210.000
1544.1000, -82.325
1544.1200, -86.830
1544.1400, -83.034
1544.1600,-210.000
1544.1800,-210.000
1544.2000,-210.000
1544.2200, -88.132
1544.2400,-210.000
1544.2600, -86.748
1544.2800, -85.478
1544.3000, -89.008
1544.3200, -85.053
1544.3400, -82.665
1544.3600,-210.000
1544.3800, -84.442
1544.4000, -91.834
1544.4200, -86.084
1544.4400,-210.000
1544.4600, -83.306
1544.4800, -86.136
1544.5000, -83.760
1544.5200, -82.578
1544.5400, -86.874
1544.5600,-210.000
1544.5800, -89.272
1544.6000,-210.000
1544.6200,-210.000
1544.6400, -89.065
1544.6600,-210.000
1544.6800, -81.377
1544.7000,-210.000
1544.7200, -81.965
1544.7400,-210.000
1544.7600,-210.000
1544.7800,-210.000
1544.8000, -82.293
1544.8200, -84.324
1544.8400, -84.270
1544.8600,-210.000
1544.8800,-210.000
1544.9000, -83.763
1544.9200, -85.705
1544.9400,-210.000
1544.9600, -84.210
1544.9800,-210.000
1545.0000, -81.919
1545.0200, -90.019
1545.0400, -80.418
1545.0600,-210.000
1545.0800, -83.255
1545.1000,-210.000
1545.1200, -84.087
1545.1400, -90.788
1545.1600,-210.000
1545.1800, -83.770
1545.2000, -86.592
1545.2200, -87.498
1545.2400, -92.124
1545.2600, -87.316
1545.2800,-210.000
1545.3000, -84.501
1545.3200, -95.147
1545.3400, -89.214
1545.3600,-210.000
1545.3800, -90.065
1545.4000, -81.000
1545.4200,-210.000
1545.4400,-210.000
1545.4600, -85.683
1545.4800,-104.474
1545.5000,-210.000
1545.5200, -86.436
1545.5400, -82.502
1545.5600,-210.000
1545.5800, -85.353
1545.6000, -88.357
1545.6200, -85.579
1545.6400, -88.409
1545.6600, -85.496
1545.6800,-210.000
1545.7000,-210.000
1545.7200, -81.550
1545.7400,-210.000
1545.7600, -92.229
1545.7800, -82.377
1545.8000, -85.524
1545.8200,-210.000
1545.8400, -85.394
1545.8600, -90.050
1545.8800, -90.719
1545.9000, -83.981
1545.9200, -87.325
1545.9400, -87.239
1545.9600,-210.000
1545.9800, -93.145
1546.0000, -85.674
1546.0200, -93.740
1546.0400, -90.003
1546.0600, -87.324
1546.0800,-210.000
1546.1000, -90.650
1546.1200, -87.289
1546.1400, -84.942
1546.1600,-210.000
1546.1800,-210.000
1546.2000, -89.899
1546.2200, -85.332
1546.2400,-210.000
1546.2600, -86.092
1546.2800, -97.051
1546.3000, -84.925
1546.3200,-210.000
1546.3400,-210.000
1546.3600, -83.063
1546.3800, -83.699
1546.4000, -84.636
1546.4200, -84.885
1546.4400, -87.662
1546.4600, -87.503
1546.4800,-210.000
1546.5000, -81.179
1546.5200, -89.018
1546.5400, -84.110
1546.5600, -87.745
1546.5800,-210.000
1546.6000,-110.514
1546.6200, -86.545
1546.6400,-210.000
1546.6600, -88.893
1546.6800, -90.617
1546.7000, -85.972
1546.7200, -86.829
1546.7400, -94.483
1546.7600, -90.790
1546.7800,-210.000
1546.8000, -84.667
1546.8200, -84.338
1546.8400, -87.503
1546.8600, -85.804
1546.8800, -88.863
1546.9000,-210.000
1546.9200, -84.665
1546.9400,-210.000
1546.9600, -82.028
1546.9800, -88.199
1547.0000, -85.254
1547.0200, -84.981
1547.0400, -85.285
1547.0600,-210.000
1547.0800, -83.735
1547.1000, -84.568
1547.1200, -90.434
1547.1400,-210.000
1547.1600,-210.000
1547.1800, -95.502
1547.2000, -88.276
1547.2200, -85.158
1547.2400, -88.420
1547.2600, -88.295
1547.2800, -83.437
1547.3000,-210.000
1547.3200, -86.175
1547.3400,-210.000
1547.3600, -86.486
1547.3800, -86.240
1547.4000,-210.000
1547.4200, -91.206
1547.4400, -83.061
1547.4600, -86.659
1547.4800,-210.000
1547.5000, -86.749
1547.5200, -93.666
1547.5400, -85.528
1547.5600,-210.000
1547.5800, -92.098
1547.6000, -96.753
1547.6200,-210.000
1547.6400, -89.322
1547.6600, -84.041
1547.6800, -87.289
1547.7000, -83.529
1547.7200,-210.000
1547.7400, -84.875
1547.7600,-210.000
1547.7800, -96.336
1547.8000, -86.557
1547.8200, -89.860
1547.8400, -92.984
1547.8600, -82.672
1547.8800, -86.555
1547.9000, -84.430
1547.9200,-210.000
1547.9400,-210.000
1547.9600, -91.435
1547.9800, -82.704
1548.0000, -89.281
1548.0200, -94.053
1548.0400, -88.384
1548.0600, -83.771
1548.0800, -87.650
1548.1000, -91.636
1548.1200,-210.000
1548.1400, -87.055
1548.1600,-102.153
1548.1800, -80.940
1548.2000, -86.643
1548.2200, -92.831
1548.2400, -88.300
1548.2600, -88.344
1548.2800, -95.155
1548.3000, -86.868
1548.3200, -91.327
1548.3400, -84.010
1548.3600, -84.376
1548.3800, -87.877
1548.4000, -87.858
1548.4200, -89.166
1548.4400,-210.000
1548.4600, -91.380
1548.4800,-210.000
1548.5000,-210.000
1548.5200,-210.000
1548.5400, -84.106
1548.5600, -88.263
1548.5800, -85.187
1548.6000,-210.000
1548.6200,-102.004
1548.6400, -85.236
1548.6600, -84.860
1548.6800, -84.782
1548.7000, -89.032
1548.7200, -88.718
1548.7400, -86.272
1548.7600, -92.300
1548.7800, -86.765
1548.8000,-210.000
1548.8200,-210.000
1548.8400, -85.661
1548.8600, -89.137
1548.8800, -84.263
1548.9000, -84.478
1548.9200, -85.329
1548.9400, -90.593
1548.9600,-210.000
1548.9800, -90.600
1549.0000, -83.301
1549.0200,-210.000
1549.0400,-210.000
1549.0600,-210.000
1549.0800,-210.000
1549.1000, -92.574
1549.1200, -86.652
1549.1400, -88.760
1549.1600,-210.000
1549.1800,-210.000
1549.2000, -84.899
1549.2200, -83.420
1549.2400, -89.386
1549.2600, -88.900
1549.2800,-210.000
1549.3000, -81.582
1549.3200, -84.478
1549.3400, -83.961
1549.3600, -91.336
1549.3800,-210.000
1549.4000,-210.000
1549.4200, -85.518
1549.4400,-210.000
1549.4600, -82.995
1549.4800,-210.000
1549.5000, -92.196
1549.5200, -82.018
1549.5400,-210.000
1549.5600, -85.829
1549.5800, -88.551
1549.6000, -85.315
1549.6200, -86.392
1549.6400,-100.375
1549.6600, -83.519
1549.6800,-210.000
1549.7000, -83.620
1549.7200,-210.000
1549.7400, -84.904
1549.7600, -88.501
1549.7800, -86.900
1549.8000, -94.032
1549.8200, -85.507
1549.8400,-210.000
1549.8600, -87.513
1549.8800,-210.000
1549.9000, -89.686
1549.9200, -79.595
1549.9400, -83.266
1549.9600,-210.000
1549.9800,-112.378
1550.0000,-210.000
1550.0200, -83.730
1550.0400,-210.000
1550.0600, -87.379
1550.0800, -91.777
1550.1000, -83.921
1550.1200,-210.000
1550.1400, -89.548
1550.1600, -90.960
1550.1800, -85.267
1550.2000, -89.526
1550.2200, -83.755
1550.2400, -82.875
1550.2600, -88.176
1550.2800,-210.000
1550.3000, -86.647
1550.3200, -84.474
1550.3400, -83.950
1550.3600, -83.398
1550.3800, -95.125
1550.4000,-210.000
1550.4200, -85.902
1550.4400, -89.030
1550.4600,-210.000
1550.4800,-210.000
1550.5000, -95.849
1550.5200,-210.000
1550.5400,-210.000
1550.5600, -85.230
1550.5800, -84.032
1550.6000, -82.428
1550.6200, -84.916
1550.6400, -83.639
1550.6600, -84.758
1550.6800, -86.469
1550.7000, -87.384
1550.7200, -87.271
1550.7400, -91.795
1550.7600, -87.611
1550.7800,-210.000
1550.8000, -86.058
1550.8200, -90.247
1550.8400, -89.345
1550.8600,-100.361
1550.8800, -83.200
1550.9000, -90.632
1550.9200, -87.928
1550.9400, -88.828
1550.9600, -86.953
1550.9800,-210.000
1551.0000, -84.215
1551.0200, -84.566
1551.0400, -87.950
1551.0600, -86.947
1551.0800, -90.218
1551.1000, -86.935
1551.1200, -82.304
1551.1400,-210.000
1551.1600, -82.781
1551.1800, -86.917
1551.2000, -91.493
1551.2200, -86.875
1551.2400, -88.135
1551.2600,-210.000
1551.2800,-210.000
1551.3000, -81.151
1551.3200,-210.000
1551.3400, -81.136
1551.3600, -85.186
1551.3800, -85.018
1551.4000, -92.966
1551.4200,-210.000
1551.4400,-210.000
1551.4600, -88.094
1551.4800, -88.840
1551.5000, -86.768
1551.5200, -86.021
1551.5400, -85.224
1551.5600, -87.162
1551.5800,-210.000
1551.6000, -83.508
1551.6200, -81.104
1551.6400, -85.413
1551.6600, -93.964
1551.6800, -82.983
1551.7000,-210.000
1551.7200,-210.000
1551.7400, -82.079
1551.7600,-210.000
1551.7800, -90.858
1551.8000, -86.441
1551.8200, -84.144
1551.8400, -94.719
1551.8600, -84.114
1551.8800, -86.269
1551.9000, -84.915
1551.9200, -85.898
1551.9400, -86.477
1551.9600,-210.000
1551.9800, -86.620
1552.0000,-210.000
1552.0200,-210.000
1552.0400, -84.156
1552.0600, -86.951
1552.0800, -85.486
1552.1000, -83.401
1552.1200, -90.532
1552.1400, -87.822
1552.1600,-210.000
1552.1800,-210.000
1552.2000, -82.942
1552.2200,-210.000
1552.2400, -88.653
1552.2600, -85.701
1552.2800, -88.748
1552.3000, -83.137
1552.3200, -95.463
1552.3400, -96.765
1552.3600,-210.000
1552.3800, -87.741
1552.4000,-210.000
1552.4200, -82.021
1552.4400,-210.000
1552.4600, -86.801
1552.4800, -82.289
1552.5000,-210.000
1552.5200, -91.138
1552.5400, -87.464
1552.5600,-210.000
1552.5800, -99.262
1552.6000,-210.000
1552.6200, -82.947
1552.6400, -86.504
1552.6600,-210.000
1552.6800,-210.000
1552.7000, -89.757
1552.7200, -83.600
1552.7400,-210.000
1552.7600,-210.000
1552.7800, -86.412
1552.8000, -84.416
1552.8200, -84.687
1552.8400, -84.254
1552.8600, -84.327
1552.8800,-105.697
1552.9000,-210.000
1552.9200, -81.471
1552.9400, -89.654
1552.9600,-210.000
1552.9800, -91.096
1553.0000, -90.329
1553.0200, -85.141
1553.0400, -89.042
1553.0600, -83.513
1553.0800,-210.000
1553.1000, -88.374
1553.1200, -94.556
1553.1400, -87.818
1553.1600, -82.845
1553.1800, -89.593
1553.2000, -90.924
1553.2200, -82.875
1553.2400, -89.845
1553.2600,-210.000
1553.2800,-210.000
1553.3000, -87.905
1553.3200, -81.896
1553.3400, -85.012
1553.3600, -86.544
1553.3800, -86.784
1553.4000,-210.000
1553.4200, -90.107
1553.4400, -83.691
1553.4600, -95.062
1553.4800,-210.000
1553.5000, -89.960
1553.5200, -86.438
1553.5400, -84.799
1553.5600,-210.000
1553.5800,-210.000
1553.6000, -83.460
1553.6200, -89.554
1553.6400,-210.000
1553.6600, -86.669
1553.6800, -86.429
1553.7000, -82.642
1553.7200,-210.000
1553.7400, -89.339
1553.7600, -86.530
1553.7800, -91.297
1553.8000,-210.000
1553.8200, -91.236
1553.8400, -83.796
1553.8600, -87.390
1553.8800,-210.000
1553.9000, -88.876
1553.9200, -86.961
1553.9400, -91.662
1553.9600, -92.110
1553.9800, -83.616
1554.0000,-210.000
1554.0200, -86.555
1554.0400,-210.000
1554.0600, -83.263
1554.0800, -86.390
1554.1000,-210.000
1554.1200, -84.754
1554.1400, -88.498
1554.1600,-210.000
1554.1800, -83.635
1554.2000,-210.000
1554.2200,-210.000
1554.2400, -81.543
1554.2600, -96.934
1554.2800, -84.317
1554.3000, -90.194
1554.3200, -88.028
1554.3400, -85.792
1554.3600,-210.000
1554.3800,-210.000
1554.4000, -85.294
1554.4200, -87.259
1554.4400, -89.686
1554.4600, -84.039
1554.4800,-210.000
1554.5000, -86.245
1554.5200, -95.114
1554.5400,-210.000
1554.5600, -96.198
1554.5800, -83.087
1554.6000, -87.037
1554.6200,-210.000
1554.6400, -86.841
1554.6600, -82.638
1554.6800, -85.115
1554.7000, -90.005
1554.7200, -88.633
1554.7400, -84.341
1554.7600, -84.889
1554.7800, -87.991
1554.8000, -87.278
1554.8200, -85.986
1554.8400, -81.125
1554.8600, -89.061
1554.8800, -90.056
1554.9000, -84.951
1554.9200,-210.000
1554.9400, -82.587
1554.9600,-210.000
1554.9800, -89.684
1555.0000, -84.014
1555.0200,-210.000
1555.0400, -81.326
1555.0600, -84.271
1555.0800, -87.508
1555.1000, -93.706
1555.1200, -87.514
1555.1400, -88.991
1555.1600, -87.481
1555.1800, -83.553
1555.2000,-210.000
1555.2200,-110.816
1555.2400, -95.908
1555.2600, -81.931
1555.2800, -87.652
1555.3000,-210.000
1555.3200,-210.000
1555.3400, -85.809
1555.3600, -81.391
1555.3800, -88.607
1555.4000,-210.000
1555.4200, -83.289
1555.4400, -83.388
1555.4600,-210.000
1555.4800, -81.591
1555.5000,-210.000
1555.5200,-210.000
1555.5400, -86.681
1555.5600, -80.048
1555.5800, -93.757
1555.6000,-210.000
1555.6200, -85.854
1555.6400, -93.467
1555.6600, -81.447
1555.6800,-210.000
1555.7000, -92.023
1555.7200, -80.661
1555.7400,-210.000
1555.7600,-210.000
1555.7800, -81.954
1555.8000, -90.554
1555.8200,-210.000
1555.8400, -93.448
1555.8600,-210.000
1555.8800, -83.280
1555.9000,-210.000
1555.9200, -83.256
1555.9400, -83.917
1555.9600, -82.982
1555.9800,-210.000
1556.0000,-210.000
1556.0200, -81.447
1556.0400, -92.797
1556.0600,-210.000
1556.0800, -81.568
1556.1000, -99.910
1556.1200,-108.858
1556.1400,-210.000
1556.1600, -80.389
1556.1800,-210.000
1556.2000,-210.000
1556.2200, -91.259
1556.2400,-210.000
1556.2600,-210.000
1556.2800, -80.670
1556.3000, -80.987
1556.3200,-210.000
1556.3400, -82.625
1556.3600, -87.510
1556.3800,-210.000
1556.4000,-210.000
1556.4200, -84.982
1556.4400, -83.666
1556.4600, -94.064
1556.4800, -97.044
1556.5000, -84.262
1556.5200, -88.900
1556.5400, -83.317
1556.5600, -89.199
1556.5800, -86.574
1556.6000, -85.380
1556.6200, -86.969
1556.6400,-210.000
1556.6600, -90.886
1556.6800, -89.542
1556.7000,-210.000
1556.7200, -82.175
1556.7400, -83.413
1556.7600,-210.000
1556.7800, -87.144
1556.8000,-210.000
1556.8200, -82.561
1556.8400, -90.898
1556.8600,-210.000
1556.8800, -88.381
1556.9000, -84.533
1556.9200, -85.598
1556.9400, -99.448
1556.9600, -81.938
1556.9800, -90.828
1557.0000, -85.299
1557.0200,-210.000
1557.0400,-210.000
1557.0600, -84.690
1557.0800, -83.540
1557.1000, -85.889
1557.1200,-210.000
1557.1400, -83.106
1557.1600, -88.738
1557.1800, -89.457
1557.2000, -82.940
1557.2200,-210.000
1557.2400, -84.591
1557.2600, -85.304
1557.2800,-210.000
1557.3000,-210.000
1557.3200,-210.000
1557.3400, -79.873
1557.3600, -85.878
1557.3800,-210.000
1557.4000, -84.498
1557.4200, -87.330
1557.4400,-210.000
1557.4600, -84.881
1557.4800, -86.783
1557.5000,-210.000
1557.5200, -81.822
1557.5400,-210.000
1557.5600, -85.830
1557.5800,-210.000
1557.6000,-210.000
1557.6200, -86.049
1557.6400,-210.000
1557.6600, -84.334
1557.6800, -91.328
1557.7000, -84.103
1557.7200,-210.000
1557.7400, -92.370
1557.7600, -87.567
1557.7800, -92.052
1557.8000, -83.566
1557.8200, -83.423
1557.8400,-210.000
1557.8600, -85.266
1557.8800, -87.432
1557.9000,-210.000
1557.9200, -88.118
1557.9400, -86.152
1557.9600, -96.110
1557.9800, -86.086
1558.0000, -84.252
1558.0200, -85.700
1558.0400,-210.000
1558.0600,-210.000
1558.0800, -90.186
1558.1000, -83.409
1558.1200,-210.000
1558.1400, -82.490
1558.1600, -97.954
1558.1800, -95.383
1558.2000,-210.000
1558.2200,-210.000
1558.2400,-210.000
1558.2600, -83.177
1558.2800, -91.506
1558.3000, -85.590
1558.3200, -87.686
1558.3400, -83.660
1558.3600,-210.000
1558.3800, -83.122
1558.4000,-210.000
1558.4200, -85.116
1558.4400, -81.657
1558.4600,-104.138
1558.4800, -85.691
1558.5000,-210.000
1558.5200, -82.435
1558.5400, -86.272
1558.5600,-210.000
1558.5800, -85.019
1558.6000, -87.432
1558.6200, -83.113
1558.6400, -90.002
1558.6600,-210.000
1558.6800, -84.095
1558.7000, -92.500
1558.7200, -83.574
1558.7400, -86.623
1558.7600,-210.000
1558.7800, -85.442
1558.8000,-210.000
1558.8200,-210.000
1558.8400, -88.074
1558.8600, -82.065
1558.8800,-210.000
1558.9000, -84.027
1558.9200,-210.000
1558.9400, -85.925
1558.9600, -91.091
1558.9800, -88.853
1559.0000,-210.000
1559.0200, -98.787
1559.0400, -86.507
1559.0600, -82.531
1559.0800,-210.000
1559.1000,-210.000
1559.1200, -80.559
1559.1400,-210.000
1559.1600, -88.435
1559.1800, -83.980
1559.2000, -83.132
1559.2200,-210.000
1559.2400,-210.000
1559.2600, -83.558
1559.2800,-210.000
1559.3000, -80.995
1559.3200, -87.047
1559.3400, -86.172
1559.3600, -83.649
1559.3800,-210.000
1559.4000, -86.127
1559.4200, -89.917
1559.4400, -83.289
1559.4600, -84.697
1559.4800, -90.931
1559.5000, -90.424
1559.5200,-210.000
1559.5400, -85.708
1559.5600, -87.805
1559.5800, -83.841
1559.6000, -85.389
1559.6200,-210.000
1559.6400,-210.000
1559.6600, -83.653
1559.6800,-210.000
1559.7000, -82.503
1559.7200, -88.990
1559.7400, -80.598
1559.7600, -91.739
1559.7800,-210.000
1559.8000, -80.273
1559.8200,-210.000
1559.8400, -83.455
1559.8600, -99.252
1559.8800, -88.588
1559.9000, -90.310
1559.9200, -85.853
1559.9400, -86.475
1559.9600,-210.000
1559.9800,-210.000
1560.0000, -83.603
1560.0200, -84.335
1560.0400,-210.000
1560.0600, -81.648
1560.0800, -86.162
1560.1000, -85.994
1560.1200, -88.227
1560.1400,-210.000
1560.1600, -87.493
1560.1800,-210.000
1560.2000, -87.170
1560.2200,-210.000
1560.2400, -85.052
1560.2600, -86.552
1560.2800, -86.262
1560.3000,-210.000
1560.3200, -81.420
1560.3400, -87.004
1560.3600, -95.355
1560.3800, -84.261
1560.4000, -87.215
1560.4200,-210.000
1560.4400,-210.000
1560.4600, -80.934
1560.4800, -94.017
1560.5000,-210.000
1560.5200,-210.000
1560.5400, -90.262
1560.5600,-210.000
1560.5800, -86.799
1560.6000, -84.525
1560.6200, -98.425
1560.6400, -82.656
1560.6600, -89.060
1560.6800,-210.000
1560.7000, -87.210
1560.7200, -85.257
1560.7400, -84.186
1560.7600, -85.719
1560.7800, -90.691
1560.8000,-210.000
1560.8200,-210.000
1560.8400, -97.540
1560.8600, -81.559
1560.8800, -88.832
1560.9000, -88.631
1560.9200, -89.057
1560.9400,-210.000
1560.9600, -82.423
1560.9800, -85.264
1561.0000, -85.624
1561.0200, -89.864
1561.0400,-210.000
1561.0600,-210.000
1561.0800, -87.453
1561.1000, -85.927
1561.1200,-210.000
1561.1400, -86.135
1561.1600,-210.000
1561.1800, -81.150
1561.2000,-210.000
1561.2200, -87.786
1561.2400, -81.139
1561.2600, -88.161
1561.2800,-210.000
1561.3000,-210.000
1561.3200, -84.695
1561.3400, -82.383
1561.3600, -86.831
1561.3800, -86.584
1561.4000,-210.000
1561.4200, -86.421
1561.4400, -93.458
1561.4600,-210.000
1561.4800, -85.010
1561.5000, -90.726
1561.5200, -90.366
1561.5400,-210.000
1561.5600, -82.545
1561.5800, -82.464
1561.6000,-210.000
1561.6200, -82.837
1561.6400, -90.368
1561.6600, -89.988
1561.6800,-210.000
1561.7000, -82.533
1561.7200,-210.000
1561.7400, -81.904
1561.7600,-210.000
1561.7800, -89.667
1561.8000, -83.870
1561.8200, -85.930
1561.8400, -86.469
1561.8600,-210.000
1561.8800, -80.572
1561.9000,-210.000
1561.9200,-210.000
1561.9400, -89.345
1561.9600,-210.000
1561.9800,-210.000
1562.0000, -81.565
1562.0200, -82.752
1562.0400,-210.000
1562.0600, -93.759
1562.0800, -84.679
1562.1000,-210.000
1562.1200, -86.854
1562.1400,-210.000
1562.1600, -81.490
1562.1800,-210.000
1562.2000, -84.290
1562.2200, -86.457
1562.2400,-210.000
1562.2600,-210.000
1562.2800, -80.600
1562.3000,-210.000
1562.3200, -83.852
1562.3400, -93.370
1562.3600, -85.209
1562.3800,-210.000
1562.4000,-210.000
1562.4200, -82.524
1562.4400,-210.000
1562.4600, -82.781
1562.4800, -85.900
1562.5000,-210.000
1562.5200, -82.357
1562.5400,-210.000
1562.5600, -85.705
1562.5800, -85.885
1562.6000,-210.000
1562.6200, -82.206
1562.6400,-210.000
1562.6600, -83.355
1562.6800, -99.083
1562.7000,-210.000
1562.7200, -82.604
1562.7400, -91.779
1562.7600, -83.004
1562.7800, -88.436
1562.8000, -88.666
1562.8200, -84.565
1562.8400, -91.361
1562.8600, -86.952
1562.8800,-210.000
1562.9000,-210.000
1562.9200, -91.196
1562.9400, -86.184
1562.9600, -81.602
1562.9800,-210.000
1563.0000,-210.000
1563.0200, -86.634
1563.0400,-210.000
1563.0600, -80.433
1563.0800, -83.007
1563.1000,-210.000
1563.1200,-210.000
1563.1400,-210.000
1563.1600,-210.000
1563.1800, -84.952
1563.2000, -86.941
1563.2200, -83.655
1563.2400, -89.554
1563.2600, -84.651
1563.2800,-210.000
1563.3000, -89.147
1563.3200, -83.981
1563.3400, -90.453
1563.3600, -89.706
1563.3800,-210.000
1563.4000, -83.954
1563.4200, -91.660
1563.4400, -89.375
1563.4600,-210.000
1563.4800, -87.949
1563.5000, -92.458
1563.5200, -88.574
1563.5400, -84.602
1563.5600, -88.243
1563.5800, -93.213
1563.6000,-210.000
1563.6200, -83.986
1563.6400, -81.013
1563.6600,-210.000
1563.6800, -96.482
1563.7000, -81.977
1563.7200,-210.000
1563.7400,-210.000
1563.7600, -83.373
1563.7800,-210.000
1563.8000, -89.320
1563.8200, -82.640
1563.8400, -83.958
1563.8600, -84.149
1563.8800, -91.766
1563.9000, -83.985
1563.9200,-210.000
1563.9400,-210.000
1563.9600,-210.000
1563.9800, -80.937
1564.0000, -90.347
1564.0200, -87.285
1564.0400,-210.000
1564.0600,-210.000
1564.0800, -93.600
1564.1000, -84.415
1564.1200, -87.523
1564.1400, -84.185
1564.1600,-210.000
1564.1800, -85.934
1564.2000, -82.423
1564.2200,-210.000
1564.2400, -86.142
1564.2600, -81.757
1564.2800,-210.000
1564.3000,-210.000
1564.3200, -83.151
1564.3400,-210.000
1564.3600,-210.000
1564.3800, -84.338
1564.4000,-210.000
1564.4200, -83.167
1564.4400, -83.138
1564.4600, -94.254
1564.4800, -83.114
1564.5000,-210.000
1564.5200, -86.382
1564.5400, -84.550
1564.5600,-210.000
1564.5800, -88.538
1564.6000, -89.281
1564.6200, -83.948
1564.6400,-210.000
1564.6600, -91.082
1564.6800,-210.000
1564.7000, -89.005
1564.7200, -85.082
1564.7400, -82.046
1564.7600,-210.000
1564.7800,-210.000
1564.8000,-210.000
1564.8200, -81.255
1564.8400,-210.000
1564.8600, -89.556
1564.8800,-210.000
1564.9000, -81.549
1564.9200,-210.000
1564.9400, -81.438
1564.9600,-210.000
1564.9800, -83.743
1565.0000, -86.294
1565.0200, -90.757
1565.0400,-100.424
1565.0600, -89.450
1565.0800, -82.944
1565.1000,-210.000
1565.1200, -82.414
1565.1400, -95.126
1565.1600, -83.758
1565.1800,-210.000
1565.2000, -85.995
1565.2200, -93.584
1565.2400, -84.210
1565.2600, -86.847
1565.2800, -87.748
1565.3000, -86.443
1565.3200, -88.466
1565.3400, -85.939
1565.3600, -87.163
1565.3800, -83.623
1565.4000, -82.423
1565.4200, -84.404
1565.4400, -88.706
1565.4600,-210.000
1565.4800, -89.209
1565.5000, -82.103
1565.5200, -84.283
1565.5400,-210.000
1565.5600,-210.000
1565.5800,-103.819
1565.6000, -85.602
1565.6200, -84.941
1565.6400, -82.341
1565.6600, -80.576
1565.6800, -87.259
1565.7000,-210.000
1565.7200, -92.181
1565.7400, -87.581
1565.7600, -84.296
1565.7800, -82.196
1565.8000, -86.270
1565.8200, -90.871
1565.8400,-107.335
1565.8600, -90.889
1565.8800, -85.891
1565.9000, -82.812
1565.9200,-210.000
1565.9400, -82.977
1565.9600, -83.278
1565.9800,-210.000
1566.0000, -87.181
1566.0200,-210.000
1566.0400, -84.651
1566.0600,-100.800
1566.0800, -86.739
1566.1000, -85.816
1566.1200, -83.484
1566.1400, -84.645
1566.1600,-210.000
1566.1800, -86.677
1566.2000, -81.548
1566.2200, -84.049
1566.2400, -86.435
1566.2600,-210.000
1566.2800, -83.205
1566.3000,-210.000
1566.3200, -85.929
1566.3400,-210.000
1566.3600, -89.322
1566.3800, -84.503
1566.4000, -90.858
1566.4200, -79.081
1566.4400,-210.000
1566.4600,-210.000
1566.4800,-210.000
1566.5000, -89.994
1566.5200,-210.000
1566.5400, -88.038
1566.5600, -84.936
1566.5800, -93.568
1566.6000, -83.152
1566.6200,-210.000
1566.6400, -87.289
1566.6600, -84.858
1566.6800,-210.000
1566.7000, -83.680
1566.7200, -86.641
1566.7400,-210.000
1566.7600, -82.711
1566.7800,-210.000
1566.8000,-210.000
1566.8200, -87.909
1566.8400,-210.000
1566.8600, -82.719
1566.8800, -83.600
1566.9000,-210.000
1566.9200, -87.862
1566.9400,-210.000
1566.9600, -80.743
1566.9800, -83.172
1567.0000,-210.000
1567.0200, -89.354
1567.0400,-210.000
1567.0600,-210.000
1567.0800, -82.631
1567.1000,-210.000
1567.1200, -85.647
1567.1400, -82.341
1567.1600,-210.000
1567.1800, -92.751
1567.2000,-210.000
1567.2200, -86.240
1567.2400, -83.534
1567.2600,-210.000
1567.2800, -85.446
1567.3000, -83.466
1567.3200,-210.000
1567.3400, -89.519
1567.3600, -85.315
1567.3800, -85.735
1567.4000, -82.234
1567.4200,-210.000
1567.4400, -84.876
1567.4600,-210.000
1567.4800, -97.327
1567.5000, -88.350
1567.5200,-210.000
1567.5400, -93.985
1567.5600, -82.678
1567.5800, -95.600
1567.6000, -85.409
1567.6200,-210.000
1567.6400, -84.511
1567.6600, -85.633
1567.6800, -88.494
1567.7000, -87.149
1567.7200,-210.000
1567.7400, -89.833
1567.7600, -81.023
1567.7800, -90.264
1567.8000, -88.233
1567.8200, -90.251
1567.8400, -82.012
1567.8600, -82.178
1567.8800, -87.959
1567.9000, -88.064
1567.9200, -85.689
1567.9400,-210.000
1567.9600, -84.901
1567.9800,-210.000
1568.0000,-210.000
1568.0200, -82.473
1568.0400, -86.331
1568.0600,-210.000
1568.0800, -86.603
1568.1000,-210.000
1568.1200,-210.000
1568.1400, -82.559
1568.1600,-210.000
1568.1800, -84.411
1568.2000, -82.907
1568.2200, -90.085
1568.2400, -86.872
1568.2600,-210.000
1568.2800, -83.219
1568.3000,-210.000
1568.3200, -85.945
1568.3400, -81.297
1568.3600, -87.025
1568.3800, -83.442
1568.4000, -89.860
1568.4200, -86.517
1568.4400,-210.000
1568.4600, -87.620
1568.4800,-210.000
1568.5000,-210.000
1568.5200, -93.718
1568.5400, -81.360
1568.5600,-101.594
1568.5800, -81.983
1568.6000, -85.142
1568.6200, -86.918
1568.6400, -84.584
1568.6600, -87.731
1568.6800, -91.980
1568.7000, -83.894
1568.7200,-210.000
1568.7400,-210.000
1568.7600, -86.184
1568.7800,-210.000
1568.8000, -87.567
1568.8200, -80.925
1568.8400, -87.440
1568.8600,-100.013
1568.8800, -83.903
1568.9000,-102.522
1568.9200, -83.530
1568.9400,-210.000
1568.9600, -81.275
1568.9800, -87.089
1569.0000,-210.000
1569.0200, -82.505
1569.0400, -89.816
1569.0600,-210.000
1569.0800, -83.550
1569.1000, -86.212
1569.1200,-210.000
1569.1400, -89.185
1569.1600, -84.482
1569.1800, -89.675
1569.2000, -85.044
1569.2200, -86.403
1569.2400, -91.661
1569.2600, -95.036
1569.2800,-210.000
1569.3000, -81.654
1569.3200, -93.766
1569.3400, -90.764
1569.3600, -88.327
1569.3800,-210.000
1569.4000, -86.256
1569.4200, -84.842
1569.4400, -84.585
1569.4600,-210.000
1569.4800, -89.855
1569.5000, -85.065
1569.5200,-210.000
1569.5400, -83.558
1569.5600, -99.580
1569.5800, -84.963
1569.6000, -83.766
1569.6200,-210.000
1569.6400, -82.004
1569.6600, -84.692
1569.6800, -88.116
1569.7000, -84.627
1569.7200, -92.078
1569.7400,-210.000
1569.7600, -83.234
1569.7800, -89.364
1569.8000, -88.052
1569.8200,-210.000
1569.8400, -89.630
1569.8600, -90.006
1569.8800, -90.617
1569.9000,-210.000
1569.9200, -89.320
1569.9400,-210.000
1569.9600, -84.981
1569.9800, -86.949
1570.0000, -84.794
1570.0200,-210.000
1570.0400, -80.336
1570.0600, -88.057
1570.0800, -87.044
1570.1000, -83.481
1570.1200,-210.000
1570.1400, -83.507
1570.1600,-210.000
1570.1800, -86.567
1570.2000, -90.692
1570.2200, -85.368
1570.2400, -87.027
1570.2600,-210.000
1570.2800,-210.000
1570.3000,-210.000
1570.3200, -81.433
1570.3400, -85.034
1570.3600, -85.162
1570.3800, -82.404
1570.4000,-210.000
1570.4200, -81.430
1570.4400, -91.520
1570.4600, -81.113
1570.4800, -84.545
1570.5000,-210.000
1570.5200, -83.913
1570.5400, -86.643
1570.5600,-210.000
1570.5800, -84.735
1570.6000, -84.567
1570.6200, -84.288
1570.6400, -85.329
1570.6600, -86.584
1570.6800, -84.882
1570.7000, -83.025
1570.7200, -88.527
1570.7400,-210.000
1570.7600, -84.438
1570.7800,-210.000
1570.8000, -87.470
1570.8200,-210.000
1570.8400, -82.850
1570.8600, -96.037
1570.8800, -87.609
1570.9000, -94.767
1570.9200, -85.007
1570.9400, -81.154
1570.9600, -88.887
1570.9800,-210.000
1571.0000, -84.343
1571.0200, -89.167
1571.0400,-210.000
1571.0600,-210.000
1571.0800, -85.658
1571.1000, -91.588
1571.1200, -81.283
1571.1400, -88.239
1571.1600,-210.000
1571.1800, -85.676
1571.2000, -82.431
1571.2200, -84.574
1571.2400, -87.446
1571.2600,-210.000
1571.2800, -82.337
1571.3000, -84.292
1571.3200,-210.000
1571.3400,-210.000
1571.3600, -80.752
1571.3800, -83.060
1571.4000, -88.805
1571.4200, -88.633
1571.4400, -85.603
1571.4600, -83.859
1571.4800, -87.408
1571.5000,-210.000
1571.5200, -81.736
1571.5400, -93.775
1571.5600, -96.172
1571.5800,-210.000
1571.6000, -85.258
1571.6200,-210.000
1571.6400, -81.725
1571.6600, -88.049
1571.6800, -84.584
1571.7000, -81.880
1571.7200,-210.000
1571.7400,-210.000
1571.7600, -80.756
1571.7800,-210.000
1571.8000,-210.000
1571.8200, -83.208
1571.8400, -87.388
1571.8600, -88.447
1571.8800, -82.967
1571.9000,-210.000
1571.9200, -85.320
1571.9400,-210.000
1571.9600, -90.149
1571.9800,-210.000
1572.0000, -80.227
1572.0200, -98.547
1572.0400, -85.994
1572.0600,-210.000
1572.0800, -86.028
1572.1000, -97.246
1572.1200, -85.346
1572.1400,-210.000
1572.1600, -88.984
1572.1800, -89.704
1572.2000, -85.701
1572.2200, -86.180
1572.2400,-210.000
1572.2600, -88.876
1572.2800,-210.000
1572.3000, -95.665
1572.3200, -80.410
1572.3400, -81.058
1572.3600,-210.000
1572.3800, -92.342
1572.4000,-210.000
1572.4200, -79.510
1572.4400,-210.000
1572.4600, -88.539
1572.4800,-210.000
1572.5000, -85.728
1572.5200, -89.730
1572.5400,-210.000
1572.5600, -85.261
1572.5800, -83.731
1572.6000, -88.174
1572.6200, -86.088
1572.6400, -90.107
1572.6600, -86.424
1572.6800, -87.065
1572.7000,-210.000
1572.7200, -83.758
1572.7400, -89.056
1572.7600, -82.388
1572.7800,-210.000
1572.8000, -88.206
1572.8200, -85.772
1572.8400, -92.042
1572.8600, -84.226
1572.8800,-210.000
1572.9000, -98.488
1572.9200, -89.918
1572.9400, -91.740
1572.9600, -86.598
1572.9800, -85.531
1573.0000,-210.000
1573.0200, -86.874
1573.0400,-210.000
1573.0600, -82.687
1573.0800, -83.403
1573.1000,-210.000
1573.1200, -86.353
1573.1400, -94.795
1573.1600,-210.000
1573.1800, -82.737
1573.2000, -82.630
1573.2200,-210.000
1573.2400, -83.641
1573.2600, -84.726
1573.2800, -85.643
1573.3000,-210.000
1573.3200, -82.124
1573.3400, -87.334
1573.3600, -84.821
1573.3800, -98.720
1573.4000, -86.563
1573.4200,-210.000
1573.4400, -81.520
1573.4600, -86.372
1573.4800, -92.283
1573.5000, -87.848
1573.5200, -84.269
1573.5400, -94.813
1573.5600, -88.157
1573.5800,-210.000
1573.6000, -81.280
1573.6200,-210.000
1573.6400, -88.285
1573.6600, -82.127
1573.6800, -87.483
1573.7000,-210.000
1573.7200, -86.130
1573.7400,-210.000
1573.7600, -80.967
1573.7800,-210.000
1573.8000, -88.482
1573.8200, -82.225
1573.8400,-210.000
1573.8600, -79.439
1573.8800, -92.326
1573.9000,-210.000
1573.9200, -84.518
1573.9400, -82.428
1573.9600, -85.143
1573.9800, -84.863
1574.0000,-210.000
1574.0200, -86.007
1574.0400,-210.000
1574.0600, -81.429
1574.0800, -91.953
1574.1000, -80.925
1574.1200,-210.000
1574.1400, -85.852
1574.1600, -95.590
1574.1800, -91.936
1574.2000, -83.189
1574.2200,-210.000
1574.2400, -82.207
1574.2600, -89.695
1574.2800,-210.000
1574.3000,-210.000
1574.3200, -86.466
1574.3400, -83.477
1574.3600,-210.000
1574.3800, -85.286
1574.4000, -97.940
1574.4200, -83.200
1574.4400,-210.000
1574.4600, -87.195
1574.4800, -94.184
1574.5000, -96.568
1574.5200, -84.939
1574.5400, -85.048
1574.5600,-114.147
1574.5800,-210.000
1574.6000, -84.025
1574.6200,-210.000
1574.6400, -82.343
1574.6600, -87.861
1574.6800, -84.423
1574.7000, -88.607
1574.7200, -95.837
1574.7400, -83.896
1574.7600, -85.322
1574.7800,-210.000
1574.8000, -82.753
1574.8200, -88.316
1574.8400, -86.161
1574.8600,-210.000
1574.8800, -81.983
1574.9000, -86.679
1574.9200, -85.182
1574.9400,-210.000
1574.9600,-210.000
1574.9800, -82.467
1575.0000, -85.954
1575.0200, -82.541
1575.0400,-210.000
1575.0600, -86.738
1575.0800,-210.000
1575.1000, -87.045
1575.1200, -89.032
1575.1400, -82.852
1575.1600, -84.213
1575.1800, -86.436
1575.2000,-210.000
1575.2200, -89.826
1575.2400, -90.811
1575.2600, -85.172
1575.2800,-210.000
1575.3000,-210.000
1575.3200, -79.798
1575.3400,-210.000
1575.3600, -83.712
1575.3800, -83.209
1575.4000, -84.291
1575.4200, -83.994
1575.4400, -86.274
1575.4600, -94.899
1575.4800, -89.269
1575.5000, -82.029
1575.5200,-210.000
1575.5400, -86.940
1575.5600,-210.000
1575.5800, -89.523
1575.6000, -82.568
1575.6200, -87.028
1575.6400,-210.000
1575.6600, -85.160
1575.6800, -89.399
1575.7000,-210.000
1575.7200,-210.000
1575.7400, -81.914
1575.7600, -81.785
1575.7800,-210.000
1575.8000, -83.259
1575.8200, -86.720
1575.8400, -90.221
1575.8600, -86.758
1575.8800, -97.779
1575.9000, -83.037
1575.9200, -89.781
1575.9400,-103.510
1575.9600,-210.000
1575.9800,-210.000
1576.0000, -82.291
1576.0200, -86.870
1576.0400, -89.685
1576.0600, -86.373
1576.0800,-210.000
1576.1000, -83.249
1576.1200, -97.083
1576.1400, -86.339
1576.1600, -99.234
1576.1800, -88.001
1576.2000, -83.886
1576.2200, -91.916
1576.2400,-210.000
1576.2600, -90.647
1576.2800, -83.748
1576.3000, -84.486
1576.3200, -81.062
1576.3400, -82.998
1576.3600,-210.000
1576.3800, -84.163
1576.4000, -83.232
1576.4200, -89.355
1576.4400,-210.000
1576.4600, -87.827
1576.4800, -88.440
1576.5000, -92.015
1576.5200,-210.000
1576.5400,-102.028
1576.5600,-210.000
1576.5800, -84.505
1576.6000,-210.000
1576.6200, -85.453
1576.6400, -83.353
1576.6600,-210.000
1576.6800, -81.080
1576.7000,-210.000
1576.7200, -84.113
1576.7400, -87.909
1576.7600, -87.538
1576.7800, -86.441
1576.8000, -84.940
1576.8200, -96.602
1576.8400, -82.308
1576.8600, -84.911
1576.8800,-210.000
1576.9000, -93.151
1576.9200,-210.000
1576.9400,-210.000
1576.9600, -82.675
1576.9800, -81.714
1577.0000, -86.120
1577.0200, -85.280
1577.0400, -81.906
1577.0600,-210.000
1577.0800, -84.781
1577.1000,-100.667
1577.1200, -94.122
1577.1400, -86.712
1577.1600, -81.961
1577.1800,-210.000
1577.2000, -88.424
1577.2200,-100.020
1577.2400,-210.000
1577.2600, -86.905
1577.2800, -88.837
1577.3000, -86.383
1577.3200, -97.652
1577.3400, -86.399
1577.3600, -85.530
1577.3800, -83.621
1577.4000, -93.380
1577.4200, -83.928
1577.4400, -85.561
1577.4600,-210.000
1577.4800, -85.255
1577.5000, -93.787
1577.5200, -93.668
1577.5400, -85.995
1577.5600, -97.106
1577.5800, -87.752
1577.6000, -83.764
1577.6200, -91.160
1577.6400, -86.889
1577.6600,-210.000
1577.6800, -85.511
1577.7000, -82.300
1577.7200, -83.941
1577.7400, -86.394
1577.7600,-210.000
1577.7800, -84.902
1577.8000,-210.000
1577.8200, -86.656
1577.8400, -83.040
1577.8600, -83.694
1577.8800,-210.000
1577.9000, -85.190
1577.9200, -87.401
1577.9400, -83.518
1577.9600,-210.000
1577.9800, -83.333
1578.0000, -82.658
1578.0200,-210.000
1578.0400,-210.000
1578.0600, -86.483
1578.0800, -83.149
1578.1000,-210.000
1578.1200,-210.000
1578.1400, -85.605
1578.1600, -83.001
1578.1800,-210.000
1578.2000, -86.770
1578.2200, -84.212
1578.2400, -90.399
1578.2600,-210.000
1578.2800, -84.244
1578.3000,-210.000
1578.3200, -81.456
1578.3400,-210.000
1578.3600, -88.100
1578.3800, -82.515
1578.4000, -84.369
1578.4200, -86.835
1578.4400,-210.000
1578.4600, -85.591
1578.4800,-210.000
1578.5000, -80.358
1578.5200,-210.000
1578.5400, -81.064
1578.5600,-210.000
1578.5800, -91.040
1578.6000, -86.852
1578.6200, -89.103
1578.6400, -81.652
1578.6600,-210.000
1578.6800, -82.483
1578.7000, -85.653
1578.7200, -83.154
1578.7400,-210.000
1578.7600,-210.000
1578.7800, -84.869
1578.8000, -88.856
1578.8200, -87.254
1578.8400, -83.508
1578.8600,-210.000
1578.8800, -85.469
1578.9000,-210.000
1578.9200, -83.380
1578.9400, -92.288
1578.9600,-210.000
1578.9800, -84.107
1579.0000,-210.000
1579.0200, -81.930
1579.0400,-210.000
1579.0600, -92.024
1579.0800, -87.662
1579.1000, -81.437
1579.1200, -95.659
1579.1400,-210.000
1579.1600, -81.017
1579.1800, -93.447
1579.2000, -84.067
1579.2200,-210.000
1579.2400, -88.176
1579.2600,-210.000
1579.2800, -86.072
1579.3000, -83.126
1579.3200, -83.689
1579.3400, -96.388
1579.3600, -84.388
1579.3800, -92.825
1579.4000,-210.000
1579.4200, -79.955
1579.4400, -87.260
1579.4600, -88.225
1579.4800,-210.000
1579.5000, -83.209
1579.5200,-210.000
1579.5400, -83.406
1579.5600, -82.673
1579.5800,-210.000
1579.6000,-104.199
1579.6200, -89.924
1579.6400, -84.551
1579.6600, -89.137
1579.6800, -91.393
1579.7000, -81.320
1579.7200,-210.000
1579.7400, -84.296
1579.7600,-210.000
1579.7800, -87.090
1579.8000,-210.000
1579.8200, -81.489
1579.8400, -93.395
1579.8600, -82.191
1579.8800, -90.262
1579.9000,-210.000
1579.9200,-210.000
1579.9400, -83.322
1579.9600, -91.773
1579.9800, -86.436
1580.0000, -85.899
1580.0200,-210.000
1580.0400, -96.086
1580.0600,-210.000
1580.0800, -91.788
1580.1000, -82.659
1580.1200, -81.924
1580.1400,-103.850
1580.1600, -88.939
1580.1800,-210.000
1580.2000, -84.139
1580.2200, -82.533
1580.2400,-210.000
1580.2600,-210.000
1580.2800, -85.029
1580.3000, -94.197
1580.3200, -84.998
1580.3400,-210.000
1580.3600,-210.000
1580.3800,-210.000
1580.4000, -85.232
1580.4200,-210.000
1580.4400, -85.296
1580.4600, -92.682
1580.4800, -93.729
1580.5000, -88.671
1580.5200, -92.241
1580.5400,-210.000
1580.5600,-210.000
1580.5800, -87.881
1580.6000, -92.352
1580.6200, -96.294
1580.6400, -81.147
1580.6600, -90.810
1580.6800, -85.884
1580.7000,-102.299
1580.7200, -84.265
1580.7400,-210.000
1580.7600,-210.000
1580.7800, -85.854
1580.8000, -85.486
1580.8200, -91.010
1580.8400, -85.696
1580.8600, -86.852
1580.8800,-102.700
1580.9000, -92.872
1580.9200, -93.424
1580.9400, -87.164
1580.9600,-210.000
1580.9800, -80.826
1581.0000,-210.000
1581.0200, -81.667
1581.0400,-210.000
1581.0600, -82.649
1581.0800,-210.000
1581.1000, -85.209
1581.1200, -86.922
1581.1400,-113.181
1581.1600,-210.000
1581.1800, -83.635
1581.2000,-210.000
1581.2200,-210.000
1581.2400, -84.430
1581.2600, -81.829
1581.2800, -86.523
1581.3000, -92.295
1581.3200, -83.861
1581.3400, -85.730
1581.3600,-210.000
1581.3800, -82.644
1581.4000, -90.026
1581.4200,-100.175
1581.4400, -84.889
1581.4600, -84.054
1581.4800, -85.017
1581.5000, -83.907
1581.5200, -83.170
1581.5400, -89.203
1581.5600, -82.789
1581.5800,-210.000
1581.6000, -86.060
1581.6200, -90.273
1581.6400, -86.269
1581.6600, -90.416
1581.6800, -85.809
1581.7000, -83.111
1581.7200, -89.439
1581.7400, -87.702
1581.7600, -82.551
1581.7800,-210.000
1581.8000, -93.495
1581.8200, -83.671
1581.8400,-210.000
1581.8600, -82.748
1581.8800, -85.015
1581.9000, -85.235
1581.9200, -87.905
1581.9400,-210.000
1581.9600, -92.046
1581.9800,-210.000
1582.0000, -79.640
1582.0200,-210.000
1582.0400,-210.000
1582.0600, -83.341
1582.0800, -86.325
1582.1000,-210.000
1582.1200,-210.000
1582.1400,-210.000
1582.1600, -84.271
1582.1800, -81.962
1582.2000,-210.000
1582.2200, -89.618
1582.2400, -92.707
1582.2600,-210.000
1582.2800, -81.631
1582.3000, -88.166
1582.3200, -82.296
1582.3400,-210.000
1582.3600, -82.460
1582.3800,-210.000
1582.4000,-210.000
1582.4200, -90.416
1582.4400,-210.000
1582.4600,-210.000
1582.4800, -81.970
1582.5000, -86.726
1582.5200, -88.155
1582.5400, -84.723
1582.5600, -93.810
1582.5800, -84.264
1582.6000, -98.317
1582.6200, -86.354
1582.6400, -83.169
1582.6600, -83.946
1582.6800, -85.441
1582.7000,-210.000
1582.7200,-210.000
1582.7400, -84.011
1582.7600, -93.831
1582.7800, -86.840
1582.8000, -89.028
1582.8200, -84.218
1582.8400, -86.865
1582.8600, -83.959
1582.8800, -84.344
1582.9000, -89.337
1582.9200, -81.670
1582.9400,-210.000
1582.9600, -87.599
1582.9800,-210.000
1583.0000, -85.606
1583.0200, -92.361
1583.0400, -80.903
1583.0600, -87.445
1583.0800,-210.000
1583.1000, -88.522
1583.1200, -91.689
1583.1400, -83.308
1583.1600, -83.599
1583.1800,-210.000
1583.2000,-210.000
1583.2200, -90.858
1583.2400, -84.625
1583.2600, -82.658
1583.2800, -82.165
1583.3000, -82.328
1583.3200,-210.000
1583.3400, -86.757
1583.3600, -81.987
1583.3800, -96.188
1583.4000, -80.991
1583.4200,-210.000
1583.4400, -84.648
1583.4600, -87.109
1583.4800, -86.702
1583.5000, -90.080
1583.5200, -85.360
1583.5400, -84.530
1583.5600, -86.673
1583.5800, -85.389
1583.6000, -86.100
1583.6200, -85.050
1583.6400, -89.549
1583.6600, -82.788
1583.6800,-210.000
1583.7000,-210.000
1583.7200, -80.249
1583.7400,-210.000
1583.7600, -82.661
1583.7800, -80.909
1583.8000, -82.593
1583.8200, -92.600
1583.8400, -85.123
1583.8600,-210.000
1583.8800, -81.056
1583.9000, -92.075
1583.9200, -88.594
1583.9400, -82.364
1583.9600, -87.845
1583.9800, -84.708
1584.0000, -83.607
1584.0200,-210.000
1584.0400,-210.000
1584.0600, -90.533
1584.0800, -91.109
1584.1000,-210.000
1584.1200, -89.882
1584.1400, -82.426
1584.1600, -88.533
1584.1800, -99.384
1584.2000, -82.822
1584.2200,-210.000
1584.2400, -83.187
1584.2600,-210.000
1584.2800, -82.844
1584.3000,-210.000
1584.3200, -81.851
1584.3400, -84.613
1584.3600, -88.016
1584.3800,-210.000
1584.4000, -84.075
1584.4200, -84.900
1584.4400, -87.653
1584.4600, -86.050
1584.4800, -87.198
1584.5000, -85.577
1584.5200, -84.493
1584.5400, -85.344
1584.5600, -85.566
1584.5800,-210.000
1584.6000, -88.324
1584.6200, -83.119
1584.6400, -87.630
1584.6600,-210.000
1584.6800,-210.000
1584.7000, -88.018
1584.7200, -87.492
1584.7400, -83.551
1584.7600, -84.575
1584.7800,-210.000
1584.8000,-210.000
1584.8200, -83.237
1584.8400, -82.248
1584.8600, -87.114
1584.8800,-210.000
1584.9000, -85.399
1584.9200, -83.701
1584.9400,-210.000
1584.9600, -88.281
1584.9800,-210.000
1585.0000, -83.948
1585.0200, -87.401
1585.0400, -86.308
1585.0600, -87.729
1585.0800, -84.441
1585.1000,-210.000
1585.1200, -84.837
1585.1400, -82.764
1585.1600, -82.512
1585.1800,-210.000
1585.2000, -88.723
1585.2200, -85.301
1585.2400,-210.000
1585.2600, -90.090
1585.2800, -86.137
1585.3000,-102.992
1585.3200, -84.710
1585.3400,-210.000
1585.3600, -80.769
1585.3800, -87.324
1585.4000,-210.000
1585.4200, -81.334
1585.4400, -89.364
1585.4600, -84.145
1585.4800,-210.000
1585.5000, -79.948
1585.5200, -83.328
1585.5400, -86.412
1585.5600, -82.924
1585.5800, -88.419
1585.6000, -84.571
1585.6200,-210.000
1585.6400,-210.000
1585.6600, -81.684
1585.6800,-210.000
1585.7000, -81.020
1585.7200, -80.346
1585.7400, -85.563
1585.7600, -87.871
1585.7800, -87.859
1585.8000, -81.747
1585.8200, -95.098
1585.8400, -83.592
1585.8600, -84.706
1585.8800, -94.292
1585.9000, -88.408
1585.9200, -85.348
1585.9400, -90.842
1585.9600, -82.828
1585.9800, -82.806
1586.0000, -88.739
1586.0200, -83.032
1586.0400,-210.000
1586.0600, -85.454
1586.0800, -89.130
1586.1000,-210.000
1586.1200, -93.152
1586.1400, -83.513
1586.1600, -86.210
1586.1800, -84.433
1586.2000, -84.991
1586.2200, -90.465
1586.2400,-210.000
1586.2600,-210.000
1586.2800,-210.000
1586.3000, -82.839
1586.3200, -91.414
1586.3400, -84.849
1586.3600, -83.680
1586.3800, -83.720
1586.4000, -83.870
1586.4200, -85.194
1586.4400, -85.843
1586.4600,-210.000
1586.4800, -92.882
1586.5000, -83.680
1586.5200,-210.000
1586.5400, -86.210
1586.5600, -90.885
1586.5800, -87.060
1586.6000, -84.384
1586.6200,-210.000
1586.6400, -87.651
1586.6600, -85.637
1586.6800, -87.708
1586.7000,-210.000
1586.7200, -83.148
1586.7400, -86.855
1586.7600, -83.954
1586.7800,-210.000
1586.8000, -82.219
1586.8200,-210.000
1586.8400, -82.146
1586.8600,-210.000
1586.8800, -85.928
1586.9000,-210.000
1586.9200, -87.596
1586.9400, -85.217
1586.9600, -81.714
1586.9800, -89.224
1587.0000, -87.097
1587.0200, -87.634
1587.0400, -88.500
1587.0600, -83.807
1587.0800, -90.888
1587.1000, -88.097
1587.1200, -86.434
1587.1400,-210.000
1587.1600, -81.751
1587.1800, -87.349
1587.2000,-210.000
1587.2200, -82.461
1587.2400, -88.199
1587.2600,-210.000
1587.2800, -86.499
1587.3000, -84.117
1587.3200, -84.016
1587.3400, -84.313
1587.3600, -92.928
1587.3800, -84.915
1587.4000,-210.000
1587.4200,-210.000
1587.4400, -80.571
1587.4600, -82.297
1587.4800, -83.874
1587.5000,-210.000
1587.5200, -79.901
1587.5400, -84.553
1587.5600,-210.000
1587.5800, -81.848
1587.6000, -90.904
1587.6200, -87.448
1587.6400, -85.191
1587.6600, -85.902
1587.6800, -92.840
1587.7000, -82.712
1587.7200,-210.000
1587.7400, -80.034
1587.7600,-210.000
1587.7800, -90.628
1587.8000, -81.233
1587.8200, -84.035
1587.8400, -90.978
1587.8600, -83.193
1587.8800,-210.000
1587.9000, -80.606
1587.9200, -89.578
1587.9400, -81.777
1587.9600, -86.658
1587.9800,-210.000
1588.0000,-210.000
1588.0200, -84.434
1588.0400, -82.776
1588.0600, -86.255
1588.0800, -85.501
1588.1000, -84.907
1588.1200, -87.929
1588.1400, -87.987
1588.1600, -84.326
1588.1800,-210.000
1588.2000, -93.925
1588.2200,-210.000
1588.2400, -82.008
1588.2600,-210.000
1588.2800,-210.000
1588.3000, -84.942
1588.3200, -80.548
1588.3400, -84.552
1588.3600,-210.000
1588.3800, -89.048
1588.4000, -86.571
1588.4200,-210.000
1588.4400, -82.961
1588.4600,-210.000
1588.4800, -80.750
1588.5000, -82.164
1588.5200, -89.071
1588.5400, -81.767
1588.5600, -83.680
1588.5800, -96.280
1588.6000,-210.000
1588.6200, -81.093
1588.6400, -83.293
1588.6600,-210.000
1588.6800, -83.519
1588.7000, -85.104
1588.7200, -95.679
1588.7400, -86.185
1588.7600, -83.690
1588.7800, -90.856
1588.8000, -90.640
1588.8200, -82.350
1588.8400,-210.000
1588.8600, -88.684
1588.8800, -85.675
1588.9000,-210.000
1588.9200,-210.000
1588.9400, -80.666
1588.9600,-210.000
1588.9800, -91.349
1589.0000,-210.000
1589.0200, -84.774
1589.0400, -88.101
1589.0600, -82.399
1589.0800,-210.000
1589.1000, -84.083
1589.1200, -81.501
1589.1400, -89.229
1589.1600, -82.254
1589.1800,-210.000
1589.2000,-210.000
1589.2200,-210.000
1589.2400, -80.036
1589.2600, -83.300
1589.2800,-210.000
1589.3000, -80.355
1589.3200, -88.905
1589.3400, -82.395
1589.3600, -84.266
1589.3800, -90.289
1589.4000,-210.000
1589.4200, -80.602
1589.4400,-210.000
1589.4600, -84.735
1589.4800, -84.209
1589.5000, -86.438
1589.5200, -83.791
1589.5400, -91.258
1589.5600,-210.000
1589.5800, -91.238
1589.6000,-210.000
1589.6200, -81.060
1589.6400, -87.731
1589.6600,-210.000
1589.6800, -86.626
1589.7000,-210.000
1589.7200, -80.740
1589.7400,-210.000
1589.7600, -84.120
1589.7800, -87.646
1589.8000, -81.252
1589.8200,-210.000
1589.8400, -80.491
1589.8600, -85.136
1589.8800, -86.718
1589.9000, -84.422
1589.9200,-210.000
1589.9400, -81.174
1589.9600, -81.995
1589.9800,-210.000
1590.0000,-210.000
1590.0200, -84.336
1590.0400, -82.986
1590.0600, -84.011
1590.0800, -86.416
1590.1000,-210.000
1590.1200, -81.820
1590.1400, -96.100
1590.1600, -90.970
1590.1800, -81.479
1590.2000,-210.000
1590.2200, -80.644
1590.2400,-210.000
1590.2600, -93.545
1590.2800,-210.000
1590.3000, -82.971
1590.3200, -83.466
1590.3400, -85.483
1590.3600, -83.618
1590.3800, -87.485
1590.4000, -82.761
1590.4200,-210.000
1590.4400, -80.394
1590.4600, -86.310
1590.4800, -88.627
1590.5000, -94.824
1590.5200, -86.624
1590.5400,-210.000
1590.5600, -88.889
1590.5800, -86.330
1590.6000, -83.487
1590.6200, -86.694
1590.6400, -94.798
1590.6600, -90.213
1590.6800, -89.377
1590.7000,-210.000
1590.7200, -80.575
1590.7400, -83.368
1590.7600, -89.823
1590.7800,-210.000
1590.8000, -80.542
1590.8200, -88.642
1590.8400, -85.778
1590.8600,-210.000
1590.8800, -84.884
1590.9000, -90.363
1590.9200, -85.492
1590.9400, -87.737
1590.9600,-210.000
1590.9800, -84.548
1591.0000, -83.613
1591.0200, -84.471
1591.0400,-210.000
1591.0600, -83.261
1591.0800, -89.149
1591.1000,-210.000
1591.1200,-210.000
1591.1400, -82.322
1591.1600, -98.732
1591.1800, -86.235
1591.2000, -93.060
1591.2200,-210.000
1591.2400, -84.346
1591.2600, -91.030
1591.2800, -85.280
1591.3000,-210.000
1591.3200, -83.744
1591.3400, -82.937
1591.3600, -82.029
1591.3800,-210.000
1591.4000, -85.234
1591.4200, -85.152
1591.4400, -94.025
1591.4600, -83.560
1591.4800, -80.609
1591.5000, -85.764
1591.5200, -87.515
1591.5400, -86.670
1591.5600, -83.661
1591.5800,-210.000
1591.6000,-210.000
1591.6200, -83.270
1591.6400,-210.000
1591.6600, -82.392
1591.6800,-210.000
1591.7000, -83.101
1591.7200,-210.000
1591.7400, -84.814
1591.7600, -80.868
1591.7800, -90.734
1591.8000,-210.000
1591.8200, -84.908
1591.8400, -90.773
1591.8600, -91.054
1591.8800,-210.000
1591.9000, -80.719
1591.9200,-210.000
1591.9400, -80.583
1591.9600,-210.000
1591.9800, -92.552
1592.0000, -87.171
1592.0200, -81.588
1592.0400,-210.000
1592.0600, -83.108
1592.0800,-210.000
1592.1000, -83.470
1592.1200, -86.338
1592.1400, -83.732
1592.1600, -83.777
1592.1800,-210.000
1592.2000, -80.559
1592.2200, -87.333
1592.2400,-210.000
1592.2600,-210.000
1592.2800, -83.432
1592.3000, -82.511
1592.3200, -93.854
1592.3400, -81.831
1592.3600,-210.000
1592.3800, -80.535
1592.4000,-210.000
1592.4200, -80.852
1592.4400,-210.000
1592.4600, -90.173
1592.4800, -87.488
1592.5000, -84.907
1592.5200, -80.916
1592.5400, -86.183
1592.5600,-210.000
1592.5800,-210.000
1592.6000,-210.000
1592.6200,-210.000
1592.6400, -81.721
1592.6600,-210.000
1592.6800, -82.204
1592.7000, -86.355
1592.7200, -87.970
1592.7400,-210.000
1592.7600, -84.971
1592.7800,-210.000
1592.8000,-210.000
1592.8200, -84.572
1592.8400, -83.621
1592.8600,-101.391
1592.8800,-210.000
1592.9000,-210.000
1592.9200, -82.511
1592.9400, -86.026
1592.9600, -85.795
1592.9800, -82.595
1593.0000,-210.000
1593.0200, -84.973
1593.0400, -88.069
1593.0600,-210.000
1593.0800, -83.429
1593.1000, -87.359
1593.1200, -86.687
1593.1400, -85.481
1593.1600, -83.629
1593.1800, -82.633
1593.2000,-210.000
1593.2200, -91.279
1593.2400,-210.000
1593.2600, -86.331
1593.2800, -82.587
1593.3000,-210.000
1593.3200, -87.783
1593.3400, -85.171
1593.3600, -85.881
1593.3800, -85.918
1593.4000,-210.000
1593.4200, -85.244
1593.4400,-210.000
1593.4600, -80.879
1593.4800,-210.000
1593.5000, -89.047
1593.5200, -81.672
1593.5400, -86.151
1593.5600, -89.806
1593.5800, -89.463
1593.6000, -86.071
1593.6200,-210.000
1593.6400, -85.736
1593.6600, -83.408
1593.6800, -86.125
1593.7000, -97.727
1593.7200, -83.166
1593.7400, -84.626
1593.7600, -87.371
1593.7800,-210.000
1593.8000, -82.906
1593.8200, -85.463
1593.8400,-210.000
1593.8600,-210.000
1593.8800,-210.000
1593.9000, -82.664
1593.9200, -82.843
1593.9400, -91.670
1593.9600, -88.760
1593.9800, -92.048
1594.0000,-100.156
1594.0200, -85.397
1594.0400, -87.052
1594.0600, -88.579
1594.0800, -87.095
1594.1000, -97.819
1594.1200, -89.470
1594.1400, -81.800
1594.1600,-210.000
1594.1800, -86.351
1594.2000, -81.972
1594.2200,-210.000
1594.2400, -80.766
1594.2600, -92.285
1594.2800, -82.685
1594.3000,-210.000
1594.3200,-210.000
1594.3400, -80.723
1594.3600,-210.000
1594.3800, -84.035
1594.4000, -82.044
1594.4200,-210.000
1594.4400, -80.915
1594.4600, -83.078
1594.4800, -85.312
1594.5000, -83.047
1594.5200,-210.000
1594.5400, -88.267
1594.5600, -86.016
1594.5800,-210.000
1594.6000,-105.591
1594.6200, -89.740
1594.6400, -81.626
1594.6600, -83.108
1594.6800,-210.000
1594.7000, -88.774
1594.7200, -85.710
1594.7400, -83.133
1594.7600, -84.295
1594.7800, -83.339
1594.8000, -83.586
1594.8200, -90.398
1594.8400, -85.637
1594.8600,-210.000
1594.8800, -89.317
1594.9000, -84.880
1594.9200, -83.619
1594.9400, -82.815
1594.9600, -82.801
1594.9800, -85.226
1595.0000, -82.404
1595.0200, -85.116
1595.0400, -86.644
1595.0600, -82.482
1595.0800, -87.870
1595.1000, -95.000
1595.1200,-210.000
1595.1400, -88.649
1595.1600, -83.240
1595.1800, -81.111
1595.2000, -86.585
1595.2200, -82.693
1595.2400,-210.000
1595.2600,-210.000
1595.2800, -87.248
1595.3000, -89.682
1595.3200,-210.000
1595.3400, -84.782
1595.3600, -83.370
1595.3800, -82.467
1595.4000,-210.000
1595.4200, -81.838
1595.4400,-210.000
1595.4600, -80.939
1595.4800, -84.475
1595.5000, -84.778
1595.5200,-210.000
1595.5400, -85.588
1595.5600,-101.578
1595.5800, -80.359
1595.6000, -90.413
1595.6200, -81.196
1595.6400,-210.000
1595.6600, -91.530
1595.6800,-103.904
1595.7000, -83.007
1595.7200,-210.000
1595.7400, -80.573
1595.7600, -85.165
1595.7800, -85.866
1595.8000, -86.504
1595.8200, -83.108
1595.8400, -84.583
1595.8600,-210.000
1595.8800, -85.572
1595.9000, -84.313
1595.9200,-210.000
1595.9400, -89.268
1595.9600, -86.513
1595.9800, -84.636
1596.0000, -87.437
1596.0200,-210.000
1596.0400, -87.756
1596.0600, -86.466
1596.0800,-210.000
1596.1000, -80.499
1596.1200,-210.000
1596.1400, -91.291
1596.1600, -82.753
1596.1800, -85.123
1596.2000, -87.528
1596.2200, -87.906
1596.2400,-210.000
1596.2600, -84.780
1596.2800, -86.079
1596.3000, -83.494
1596.3200, -83.536
1596.3400,-210.000
1596.3600, -82.741
1596.3800,-210.000
1596.4000, -86.277
1596.4200, -84.414
1596.4400, -80.110
1596.4600,-210.000
1596.4800, -82.581
1596.5000,-210.000
1596.5200, -85.102
1596.5400, -86.081
1596.5600, -95.381
1596.5800,-210.000
1596.6000, -83.328
1596.6200, -88.404
1596.6400,-210.000
1596.6600, -84.723
1596.6800, -84.037
1596.7000,-210.000
1596.7200, -79.547
1596.7400, -83.162
1596.7600,-210.000
1596.7800, -86.576
1596.8000, -85.009
1596.8200, -90.007
1596.8400, -87.507
1596.8600, -97.035
1596.8800, -84.605
1596.9000,-210.000
1596.9200, -88.601
1596.9400, -96.833
1596.9600, -89.363
1596.9800, -85.595
1597.0000,-210.000
1597.0200,-210.000
1597.0400, -87.266
1597.0600, -85.582
1597.0800, -88.962
1597.1000,-210.000
1597.1200, -82.195
1597.1400,-210.000
1597.1600, -92.759
1597.1800,-210.000
1597.2000, -91.482
1597.2200, -81.283
1597.2400,-210.000
1597.2600, -82.810
1597.2800,-210.000
1597.3000, -81.074
1597.3200,-210.000
1597.3400, -94.162
1597.3600, -82.342
1597.3800, -84.723
1597.4000,-210.000
1597.4200, -86.480
1597.4400, -84.815
1597.4600, -82.157
1597.4800, -90.441
1597.5000, -86.292
1597.5200, -83.739
1597.5400, -82.755
1597.5600,-210.000
1597.5800, -83.161
1597.6000,-210.000
1597.6200, -83.046
1597.6400, -93.186
1597.6600,-210.000
1597.6800, -83.546
1597.7000,-210.000
1597.7200, -84.875
1597.7400, -91.252
1597.7600,-210.000
1597.7800, -88.069
1597.8000, -85.486
1597.8200,-210.000
1597.8400, -94.867
1597.8600, -83.677
1597.8800, -86.162
1597.9000, -82.455
1597.9200,-210.000
1597.9400, -80.740
1597.9600, -88.719
1597.9800,-103.635
1598.0000,-210.000
1598.0200, -81.249
1598.0400, -88.913
1598.0600, -86.957
1598.0800, -91.248
1598.1000, -91.674
1598.1200, -84.710
1598.1400,-210.000
1598.1600,-210.000
1598.1800, -84.659
1598.2000, -86.630
1598.2200,-210.000
1598.2400, -84.265
1598.2600, -82.321
1598.2800, -88.179
1598.3000, -89.475
1598.3200,-210.000
1598.3400, -81.907
1598.3600,-210.000
1598.3800, -86.011
1598.4000,-210.000
1598.4200, -90.876
1598.4400, -84.413
1598.4600,-210.000
1598.4800, -83.254
1598.5000, -89.338
1598.5200, -84.903
1598.5400, -82.263
1598.5600,-210.000
1598.5800, -81.104
1598.6000, -87.743
1598.6200, -85.815
1598.6400, -84.714
1598.6600,-210.000
1598.6800, -80.948
1598.7000, -97.059
1598.7200, -86.967
1598.7400, -96.659
1598.7600, -92.427
1598.7800,-210.000
1598.8000,-210.000
1598.8200, -82.604
1598.8400,-210.000
1598.8600, -82.319
1598.8800,-102.773
1598.9000, -85.708
1598.9200,-114.918
1598.9400, -84.872
1598.9600, -85.049
1598.9800,-210.000
1599.0000, -82.730
1599.0200,-210.000
1599.0400, -84.008
1599.0600, -84.723
1599.0800,-210.000
1599.1000, -81.354
1599.1200, -85.944
1599.1400, -82.468
1599.1600,-210.000
1599.1800,-210.000
1599.2000, -80.074
1599.2200,-210.000
1599.2400, -96.163
1599.2600, -82.491
1599.2800, -93.287
1599.3000, -92.914
1599.3200, -83.482
1599.3400,-210.000
1599.3600, -86.831
1599.3800, -91.258
1599.4000, -90.366
1599.4200, -86.137
1599.4400, -91.935
1599.4600, -84.494
1599.4800,-210.000
1599.5000, -87.048
1599.5200, -87.713
1599.5400, -86.818
1599.5600, -84.692
1599.5800, -88.633
1599.6000,-210.000
1599.6200, -81.574
1599.6400,-210.000
1599.6600, -87.152
1599.6800,-210.000
1599.7000, -82.701
1599.7200,-101.178
1599.7400,-210.000
1599.7600, -81.611
1599.7800,-210.000
1599.8000, -87.877
1599.8200, -83.836
1599.8400,-210.000
1599.8600, -82.768
1599.8800, -89.363
1599.9000, -91.226
1599.9200, -84.278
1599.9400, -97.514
1599.9600,-210.000
1599.9800, -86.802
1600.0000, -94.618
