70BCSV 	
// AQ6370B OPTICAL SPECTRUM ANALYZER //                 
25
"CTRWL",1550.000000
"SPAN", 100.000000
"START WL",1500.000000
"STOP WL",1600.000000
"WLFREQ", 0
"REFL",-26.7
"LSCL", 5.0
"RESLN",0.100
"AVG",   1
"SMPLAUTO",      0
"SMPL",       5001
"SMPLINTVL",0.0200
"HIGH1"
"MEAS"
"LSUNT",0
"NMSKH","OFF"
"RESCOR",0
"RESPARM", 9050
"FREQPARM", 9050






"[TRACE DATA]"
1500.0000, -97.575
1500.0200, -93.090
1500.0400, -86.455
1500.0600, -92.542
1500.0800, -94.668
1500.1000, -86.144
1500.1200,-210.000
1500.1400,-210.000
1500.1600, -87.185
1500.1800,-210.000
1500.2000, -84.913
1500.2200,-210.000
1500.2400,-210.000
1500.2600, -87.166
1500.2800,-210.000
1500.3000,-210.000
1500.3200, -81.938
1500.3400,-210.000
1500.3600,-210.000
1500.3800, -81.625
1500.4000,-210.000
1500.4200,-210.000
1500.4400, -89.849
1500.4600,-210.000
1500.4800, -81.763
1500.5000,-210.000
1500.5200,-210.000
1500.5400, -82.062
1500.5600,-210.000
1500.5800,-210.000
1500.6000,-210.000
1500.6200,-210.000
1500.6400,-210.000
1500.6600, -88.996
1500.6800, -84.423
1500.7000, -84.677
1500.7200, -85.378
1500.7400,-210.000
1500.7600, -87.212
1500.7800, -85.147
1500.8000,-210.000
1500.8200,-210.000
1500.8400,-210.000
1500.8600,-210.000
1500.8800, -89.391
1500.9000,-210.000
1500.9200,-210.000
1500.9400, -86.530
1500.9600, -89.363
1500.9800,-103.315
1501.0000, -86.580
1501.0200, -88.653
1501.0400,-210.000
1501.0600, -84.499
1501.0800, -83.543
1501.1000, -85.322
1501.1200,-210.000
1501.1400,-210.000
1501.1600, -81.708
1501.1800,-210.000
1501.2000,-210.000
1501.2200, -88.138
1501.2400, -82.719
1501.2600,-210.000
1501.2800,-210.000
1501.3000, -82.277
1501.3200,-210.000
1501.3400,-210.000
1501.3600, -83.392
1501.3800, -95.698
1501.4000,-210.000
1501.4200,-210.000
1501.4400,-210.000
1501.4600,-210.000
1501.4800, -84.095
1501.5000, -94.045
1501.5200,-210.000
1501.5400,-210.000
1501.5600, -83.180
1501.5800,-210.000
1501.6000, -86.827
1501.6200,-210.000
1501.6400,-210.000
1501.6600, -84.155
1501.6800, -83.437
1501.7000,-210.000
1501.7200, -84.334
1501.7400, -97.010
1501.7600,-210.000
1501.7800,-210.000
1501.8000, -85.408
1501.8200,-210.000
1501.8400,-210.000
1501.8600,-210.000
1501.8800, -83.712
1501.9000, -88.676
1501.9200, -83.165
1501.9400,-210.000
1501.9600,-210.000
1501.9800, -83.411
1502.0000, -98.489
1502.0200,-210.000
1502.0400,-210.000
1502.0600,-210.000
1502.0800, -85.183
1502.1000, -93.182
1502.1200, -85.850
1502.1400, -83.304
1502.1600,-210.000
1502.1800, -87.834
1502.2000,-210.000
1502.2200, -84.710
1502.2400, -90.200
1502.2600,-210.000
1502.2800,-210.000
1502.3000, -92.233
1502.3200, -84.314
1502.3400,-210.000
1502.3600,-210.000
1502.3800, -82.229
1502.4000,-210.000
1502.4200, -85.198
1502.4400, -85.526
1502.4600, -92.967
1502.4800, -84.200
1502.5000, -85.219
1502.5200,-210.000
1502.5400, -82.183
1502.5600,-210.000
1502.5800, -89.419
1502.6000, -87.062
1502.6200, -88.690
1502.6400, -83.983
1502.6600,-210.000
1502.6800,-210.000
1502.7000, -86.401
1502.7200,-210.000
1502.7400, -87.195
1502.7600,-106.295
1502.7800, -82.919
1502.8000, -85.796
1502.8200, -87.578
1502.8400,-210.000
1502.8600, -86.363
1502.8800,-210.000
1502.9000,-210.000
1502.9200, -85.359
1502.9400, -92.715
1502.9600,-210.000
1502.9800, -87.722
1503.0000, -90.561
1503.0200,-210.000
1503.0400, -86.607
1503.0600,-210.000
1503.0800, -82.329
1503.1000,-210.000
1503.1200, -81.646
1503.1400, -86.469
1503.1600, -84.799
1503.1800,-210.000
1503.2000, -99.645
1503.2200, -86.717
1503.2400, -89.473
1503.2600,-210.000
1503.2800, -87.672
1503.3000,-210.000
1503.3200,-210.000
1503.3400, -84.169
1503.3600, -86.038
1503.3800,-210.000
1503.4000,-210.000
1503.4200, -90.175
1503.4400,-210.000
1503.4600, -84.061
1503.4800,-210.000
1503.5000,-210.000
1503.5200,-210.000
1503.5400,-210.000
1503.5600,-112.347
1503.5800, -88.073
1503.6000, -85.314
1503.6200,-210.000
1503.6400, -85.127
1503.6600,-210.000
1503.6800, -84.462
1503.7000, -88.947
1503.7200,-210.000
1503.7400,-210.000
1503.7600, -95.260
1503.7800,-210.000
1503.8000, -88.551
1503.8200, -87.315
1503.8400,-210.000
1503.8600, -84.769
1503.8800,-210.000
1503.9000,-210.000
1503.9200, -82.069
1503.9400,-210.000
1503.9600, -96.371
1503.9800, -89.284
1504.0000,-210.000
1504.0200, -84.201
1504.0400, -84.435
1504.0600,-210.000
1504.0800,-210.000
1504.1000, -91.925
1504.1200, -86.566
1504.1400, -84.334
1504.1600,-210.000
1504.1800, -84.269
1504.2000,-210.000
1504.2200, -87.170
1504.2400, -85.605
1504.2600,-210.000
1504.2800,-107.153
1504.3000, -86.238
1504.3200,-210.000
1504.3400, -84.217
1504.3600, -94.646
1504.3800, -93.233
1504.4000,-210.000
1504.4200, -87.292
1504.4400,-210.000
1504.4600, -84.290
1504.4800,-210.000
1504.5000,-210.000
1504.5200, -83.597
1504.5400,-101.500
1504.5600, -82.651
1504.5800,-210.000
1504.6000, -91.427
1504.6200, -93.979
1504.6400,-100.819
1504.6600,-210.000
1504.6800, -90.949
1504.7000, -92.058
1504.7200,-210.000
1504.7400, -89.760
1504.7600,-210.000
1504.7800, -86.989
1504.8000, -88.340
1504.8200, -87.833
1504.8400, -85.528
1504.8600, -83.824
1504.8800, -84.800
1504.9000,-210.000
1504.9200,-210.000
1504.9400, -91.086
1504.9600, -89.791
1504.9800,-210.000
1505.0000, -86.006
1505.0200,-210.000
1505.0400, -87.246
1505.0600, -97.742
1505.0800,-103.334
1505.1000, -90.728
1505.1200, -86.178
1505.1400, -91.021
1505.1600,-210.000
1505.1800, -80.695
1505.2000,-210.000
1505.2200,-210.000
1505.2400, -92.237
1505.2600, -88.297
1505.2800, -97.224
1505.3000, -88.632
1505.3200, -87.402
1505.3400, -86.632
1505.3600, -85.875
1505.3800,-210.000
1505.4000,-210.000
1505.4200, -82.856
1505.4400,-210.000
1505.4600, -80.785
1505.4800,-210.000
1505.5000,-210.000
1505.5200,-210.000
1505.5400, -82.482
1505.5600, -87.736
1505.5800,-210.000
1505.6000, -84.740
1505.6200, -89.605
1505.6400, -88.162
1505.6600,-210.000
1505.6800,-210.000
1505.7000, -85.582
1505.7200, -88.185
1505.7400, -80.475
1505.7600,-210.000
1505.7800, -85.104
1505.8000,-210.000
1505.8200, -84.114
1505.8400, -92.502
1505.8600,-210.000
1505.8800,-210.000
1505.9000, -89.954
1505.9200,-210.000
1505.9400, -88.177
1505.9600, -84.879
1505.9800, -83.867
1506.0000,-210.000
1506.0200, -83.986
1506.0400,-210.000
1506.0600,-210.000
1506.0800, -84.722
1506.1000,-210.000
1506.1200, -85.741
1506.1400,-210.000
1506.1600, -84.538
1506.1800, -83.475
1506.2000,-210.000
1506.2200, -87.684
1506.2400,-210.000
1506.2600,-210.000
1506.2800,-210.000
1506.3000, -86.925
1506.3200, -84.800
1506.3400, -81.953
1506.3600, -86.676
1506.3800,-210.000
1506.4000, -82.696
1506.4200, -90.151
1506.4400,-210.000
1506.4600, -92.989
1506.4800,-210.000
1506.5000, -82.740
1506.5200,-210.000
1506.5400, -89.719
1506.5600, -84.286
1506.5800, -99.640
1506.6000,-210.000
1506.6200, -85.717
1506.6400, -90.395
1506.6600, -87.146
1506.6800, -87.987
1506.7000,-210.000
1506.7200, -84.541
1506.7400,-210.000
1506.7600, -89.405
1506.7800,-210.000
1506.8000, -83.336
1506.8200, -86.029
1506.8400,-210.000
1506.8600, -82.350
1506.8800,-210.000
1506.9000,-210.000
1506.9200, -88.284
1506.9400,-210.000
1506.9600, -92.939
1506.9800, -90.872
1507.0000,-210.000
1507.0200, -84.459
1507.0400,-210.000
1507.0600,-210.000
1507.0800, -84.992
1507.1000, -89.711
1507.1200,-210.000
1507.1400, -86.907
1507.1600,-210.000
1507.1800, -90.380
1507.2000, -85.265
1507.2200, -92.631
1507.2400,-210.000
1507.2600,-210.000
1507.2800,-210.000
1507.3000, -87.689
1507.3200,-100.975
1507.3400, -87.302
1507.3600,-210.000
1507.3800, -80.691
1507.4000, -85.220
1507.4200,-210.000
1507.4400, -85.704
1507.4600,-210.000
1507.4800,-210.000
1507.5000, -87.854
1507.5200,-210.000
1507.5400, -83.469
1507.5600,-210.000
1507.5800, -99.069
1507.6000, -93.572
1507.6200,-210.000
1507.6400, -86.488
1507.6600,-210.000
1507.6800,-210.000
1507.7000, -86.960
1507.7200, -93.030
1507.7400, -85.704
1507.7600, -87.471
1507.7800,-210.000
1507.8000, -88.167
1507.8200,-210.000
1507.8400,-210.000
1507.8600, -84.699
1507.8800, -91.643
1507.9000,-109.309
1507.9200,-210.000
1507.9400, -89.380
1507.9600, -83.399
1507.9800, -85.107
1508.0000, -97.787
1508.0200, -88.851
1508.0400, -86.097
1508.0600,-210.000
1508.0800, -85.055
1508.1000, -92.840
1508.1200, -84.585
1508.1400,-210.000
1508.1600, -84.071
1508.1800, -90.074
1508.2000, -89.930
1508.2200,-210.000
1508.2400, -84.891
1508.2600, -83.654
1508.2800,-210.000
1508.3000, -87.641
1508.3200,-210.000
1508.3400,-210.000
1508.3600, -93.196
1508.3800, -85.789
1508.4000, -83.098
1508.4200,-210.000
1508.4400, -85.605
1508.4600,-210.000
1508.4800,-210.000
1508.5000, -89.207
1508.5200, -87.654
1508.5400, -88.547
1508.5600, -93.748
1508.5800,-210.000
1508.6000, -84.103
1508.6200,-210.000
1508.6400, -89.237
1508.6600, -84.841
1508.6800, -83.465
1508.7000,-210.000
1508.7200, -87.572
1508.7400,-210.000
1508.7600, -87.673
1508.7800, -88.508
1508.8000, -91.146
1508.8200,-210.000
1508.8400,-210.000
1508.8600,-210.000
1508.8800,-102.461
1508.9000, -83.459
1508.9200, -84.679
1508.9400,-210.000
1508.9600, -85.698
1508.9800,-210.000
1509.0000, -87.975
1509.0200, -83.355
1509.0400, -88.235
1509.0600, -85.147
1509.0800,-210.000
1509.1000,-210.000
1509.1200, -85.598
1509.1400, -82.744
1509.1600, -89.023
1509.1800,-210.000
1509.2000,-210.000
1509.2200, -82.144
1509.2400,-210.000
1509.2600, -92.491
1509.2800, -87.471
1509.3000,-210.000
1509.3200, -92.316
1509.3400, -87.468
1509.3600, -90.190
1509.3800, -86.444
1509.4000,-210.000
1509.4200, -85.745
1509.4400,-210.000
1509.4600,-210.000
1509.4800,-210.000
1509.5000, -90.557
1509.5200, -85.038
1509.5400, -87.223
1509.5600, -86.278
1509.5800,-210.000
1509.6000, -83.879
1509.6200,-210.000
1509.6400,-210.000
1509.6600,-210.000
1509.6800,-210.000
1509.7000, -82.643
1509.7200,-210.000
1509.7400, -92.282
1509.7600, -86.307
1509.7800,-210.000
1509.8000, -85.241
1509.8200, -85.734
1509.8400, -87.753
1509.8600, -85.219
1509.8800, -85.622
1509.9000, -85.813
1509.9200, -83.335
1509.9400,-210.000
1509.9600, -84.355
1509.9800, -85.161
1510.0000, -88.094
1510.0200, -88.201
1510.0400,-210.000
1510.0600, -84.562
1510.0800,-210.000
1510.1000, -85.443
1510.1200,-210.000
1510.1400,-210.000
1510.1600,-210.000
1510.1800, -88.442
1510.2000, -84.759
1510.2200,-210.000
1510.2400, -89.288
1510.2600,-210.000
1510.2800,-210.000
1510.3000, -84.902
1510.3200,-210.000
1510.3400, -85.808
1510.3600, -86.444
1510.3800, -95.934
1510.4000, -84.283
1510.4200, -84.448
1510.4400, -85.195
1510.4600, -85.278
1510.4800, -93.437
1510.5000, -89.605
1510.5200,-210.000
1510.5400, -88.010
1510.5600,-210.000
1510.5800, -85.261
1510.6000, -96.161
1510.6200,-210.000
1510.6400, -89.540
1510.6600, -88.493
1510.6800, -84.402
1510.7000,-210.000
1510.7200, -85.398
1510.7400, -87.348
1510.7600, -94.206
1510.7800, -86.497
1510.8000,-210.000
1510.8200,-210.000
1510.8400, -87.130
1510.8600, -81.755
1510.8800,-210.000
1510.9000, -85.057
1510.9200, -83.127
1510.9400,-210.000
1510.9600,-210.000
1510.9800, -82.372
1511.0000, -85.296
1511.0200, -87.099
1511.0400,-210.000
1511.0600,-210.000
1511.0800, -85.438
1511.1000,-210.000
1511.1200, -82.214
1511.1400,-124.318
1511.1600,-210.000
1511.1800,-210.000
1511.2000, -87.950
1511.2200, -80.187
1511.2400,-210.000
1511.2600, -83.579
1511.2800, -92.897
1511.3000,-210.000
1511.3200,-210.000
1511.3400, -95.042
1511.3600, -84.087
1511.3800, -85.075
1511.4000,-210.000
1511.4200, -88.321
1511.4400, -85.788
1511.4600, -88.070
1511.4800,-210.000
1511.5000, -84.908
1511.5200, -83.446
1511.5400,-210.000
1511.5600,-210.000
1511.5800,-210.000
1511.6000, -93.079
1511.6200, -91.367
1511.6400, -88.536
1511.6600, -83.769
1511.6800,-210.000
1511.7000, -82.666
1511.7200,-210.000
1511.7400, -95.929
1511.7600, -90.209
1511.7800, -85.856
1511.8000, -97.004
1511.8200,-210.000
1511.8400,-210.000
1511.8600, -86.206
1511.8800, -85.119
1511.9000, -86.300
1511.9200,-210.000
1511.9400, -85.115
1511.9600, -89.485
1511.9800, -89.529
1512.0000,-210.000
1512.0200, -83.997
1512.0400,-210.000
1512.0600,-210.000
1512.0800, -84.622
1512.1000, -90.009
1512.1200,-210.000
1512.1400, -85.913
1512.1600, -83.810
1512.1800, -86.190
1512.2000,-210.000
1512.2200, -87.775
1512.2400, -86.415
1512.2600,-210.000
1512.2800,-210.000
1512.3000, -85.650
1512.3200, -88.172
1512.3400, -86.339
1512.3600, -95.573
1512.3800, -92.696
1512.4000, -89.130
1512.4200, -93.536
1512.4400,-210.000
1512.4600,-210.000
1512.4800,-210.000
1512.5000, -82.964
1512.5200, -83.944
1512.5400, -83.435
1512.5600, -87.957
1512.5800,-210.000
1512.6000,-210.000
1512.6200,-210.000
1512.6400,-210.000
1512.6600, -87.315
1512.6800, -83.502
1512.7000, -84.287
1512.7200, -86.811
1512.7400,-210.000
1512.7600,-210.000
1512.7800, -94.735
1512.8000, -84.122
1512.8200, -83.173
1512.8400,-210.000
1512.8600, -86.841
1512.8800, -84.899
1512.9000, -88.887
1512.9200, -86.883
1512.9400,-210.000
1512.9600, -91.497
1512.9800, -94.390
1513.0000, -88.017
1513.0200,-210.000
1513.0400, -85.441
1513.0600,-210.000
1513.0800, -85.212
1513.1000, -89.367
1513.1200,-210.000
1513.1400, -89.129
1513.1600, -82.532
1513.1800, -86.572
1513.2000, -89.310
1513.2200, -83.742
1513.2400,-210.000
1513.2600, -88.375
1513.2800, -82.911
1513.3000, -96.126
1513.3200, -99.968
1513.3400, -90.830
1513.3600, -89.775
1513.3800, -91.318
1513.4000, -95.878
1513.4200,-210.000
1513.4400, -83.365
1513.4600,-210.000
1513.4800, -81.314
1513.5000, -92.719
1513.5200, -84.109
1513.5400,-210.000
1513.5600,-210.000
1513.5800, -82.578
1513.6000,-210.000
1513.6200, -85.209
1513.6400,-210.000
1513.6600,-210.000
1513.6800, -89.291
1513.7000, -82.938
1513.7200,-210.000
1513.7400,-210.000
1513.7600, -84.685
1513.7800, -88.207
1513.8000,-210.000
1513.8200, -88.461
1513.8400, -85.684
1513.8600, -82.927
1513.8800,-210.000
1513.9000,-102.087
1513.9200, -84.197
1513.9400, -89.233
1513.9600,-210.000
1513.9800, -96.401
1514.0000,-210.000
1514.0200, -84.008
1514.0400, -88.894
1514.0600, -86.004
1514.0800, -87.233
1514.1000, -87.411
1514.1200,-210.000
1514.1400, -86.601
1514.1600, -88.415
1514.1800, -83.281
1514.2000,-210.000
1514.2200,-210.000
1514.2400, -83.488
1514.2600,-210.000
1514.2800,-210.000
1514.3000, -83.521
1514.3200,-210.000
1514.3400, -81.258
1514.3600, -87.337
1514.3800, -93.567
1514.4000, -83.450
1514.4200,-210.000
1514.4400, -85.729
1514.4600,-210.000
1514.4800, -88.353
1514.5000, -83.684
1514.5200,-210.000
1514.5400, -95.318
1514.5600, -82.187
1514.5800,-101.608
1514.6000,-210.000
1514.6200,-210.000
1514.6400,-210.000
1514.6600, -90.078
1514.6800, -86.019
1514.7000,-210.000
1514.7200, -82.764
1514.7400, -82.550
1514.7600,-210.000
1514.7800,-210.000
1514.8000, -81.345
1514.8200,-210.000
1514.8400, -87.796
1514.8600,-210.000
1514.8800, -88.160
1514.9000,-210.000
1514.9200,-210.000
1514.9400, -93.073
1514.9600,-210.000
1514.9800, -82.833
1515.0000,-210.000
1515.0200, -82.813
1515.0400,-210.000
1515.0600,-210.000
1515.0800,-210.000
1515.1000, -82.382
1515.1200, -97.027
1515.1400, -84.459
1515.1600, -89.314
1515.1800, -87.891
1515.2000,-210.000
1515.2200, -82.035
1515.2400, -83.238
1515.2600,-210.000
1515.2800, -84.777
1515.3000, -81.533
1515.3200,-210.000
1515.3400, -80.943
1515.3600,-210.000
1515.3800, -84.832
1515.4000, -85.224
1515.4200,-210.000
1515.4400, -97.817
1515.4600, -86.658
1515.4800, -85.855
1515.5000, -81.722
1515.5200,-210.000
1515.5400, -89.868
1515.5600, -83.847
1515.5800, -84.513
1515.6000, -86.138
1515.6200,-210.000
1515.6400, -93.791
1515.6600,-210.000
1515.6800, -85.836
1515.7000,-210.000
1515.7200, -83.976
1515.7400, -91.386
1515.7600, -85.723
1515.7800,-210.000
1515.8000,-210.000
1515.8200, -80.900
1515.8400,-210.000
1515.8600,-210.000
1515.8800, -82.722
1515.9000, -85.497
1515.9200,-210.000
1515.9400, -85.628
1515.9600, -84.433
1515.9800,-210.000
1516.0000, -90.037
1516.0200, -85.117
1516.0400, -87.433
1516.0600,-210.000
1516.0800, -87.823
1516.1000, -84.936
1516.1200,-210.000
1516.1400, -83.682
1516.1600,-210.000
1516.1800, -84.326
1516.2000,-210.000
1516.2200,-210.000
1516.2400,-210.000
1516.2600, -84.042
1516.2800, -85.680
1516.3000, -87.919
1516.3200, -84.171
1516.3400, -90.885
1516.3600, -81.874
1516.3800,-210.000
1516.4000,-210.000
1516.4200, -97.537
1516.4400, -84.644
1516.4600, -84.289
1516.4800,-210.000
1516.5000, -88.345
1516.5200, -94.724
1516.5400,-210.000
1516.5600,-210.000
1516.5800, -83.772
1516.6000, -92.174
1516.6200,-210.000
1516.6400, -86.386
1516.6600, -95.036
1516.6800,-210.000
1516.7000, -83.228
1516.7200,-210.000
1516.7400,-210.000
1516.7600,-210.000
1516.7800, -84.197
1516.8000,-210.000
1516.8200,-210.000
1516.8400, -82.992
1516.8600,-210.000
1516.8800,-210.000
1516.9000, -85.264
1516.9200,-210.000
1516.9400, -85.664
1516.9600, -86.843
1516.9800, -92.556
1517.0000, -87.437
1517.0200, -98.817
1517.0400,-210.000
1517.0600,-210.000
1517.0800,-210.000
1517.1000,-210.000
1517.1200, -80.458
1517.1400, -82.083
1517.1600,-210.000
1517.1800, -83.398
1517.2000, -85.366
1517.2200,-210.000
1517.2400, -86.429
1517.2600,-210.000
1517.2800, -91.539
1517.3000, -86.425
1517.3200, -81.638
1517.3400,-210.000
1517.3600, -89.460
1517.3800, -90.853
1517.4000, -91.123
1517.4200, -83.797
1517.4400,-210.000
1517.4600, -89.551
1517.4800,-107.222
1517.5000,-210.000
1517.5200, -83.773
1517.5400,-210.000
1517.5600,-210.000
1517.5800, -91.582
1517.6000, -92.122
1517.6200, -86.358
1517.6400,-210.000
1517.6600,-210.000
1517.6800, -91.934
1517.7000,-210.000
1517.7200,-210.000
1517.7400, -87.636
1517.7600, -87.322
1517.7800, -89.775
1517.8000, -84.092
1517.8200, -94.477
1517.8400,-210.000
1517.8600, -83.621
1517.8800,-210.000
1517.9000,-210.000
1517.9200,-210.000
1517.9400,-210.000
1517.9600, -85.975
1517.9800,-100.139
1518.0000,-210.000
1518.0200, -83.067
1518.0400,-210.000
1518.0600,-210.000
1518.0800, -88.799
1518.1000, -84.430
1518.1200, -83.973
1518.1400,-210.000
1518.1600, -86.859
1518.1800,-210.000
1518.2000, -84.414
1518.2200, -88.434
1518.2400,-210.000
1518.2600, -86.369
1518.2800, -88.800
1518.3000, -86.382
1518.3200, -93.805
1518.3400, -86.533
1518.3600, -85.173
1518.3800, -87.426
1518.4000,-210.000
1518.4200, -84.112
1518.4400, -85.066
1518.4600,-210.000
1518.4800, -83.919
1518.5000, -88.642
1518.5200,-210.000
1518.5400, -91.129
1518.5600, -82.334
1518.5800,-210.000
1518.6000, -84.652
1518.6200,-210.000
1518.6400, -82.879
1518.6600,-210.000
1518.6800, -84.750
1518.7000,-210.000
1518.7200, -91.488
1518.7400, -90.414
1518.7600, -87.193
1518.7800, -90.697
1518.8000, -82.511
1518.8200, -87.052
1518.8400,-210.000
1518.8600,-210.000
1518.8800, -95.369
1518.9000, -92.090
1518.9200, -87.823
1518.9400,-210.000
1518.9600, -85.114
1518.9800,-210.000
1519.0000,-210.000
1519.0200, -87.823
1519.0400, -89.125
1519.0600,-210.000
1519.0800, -86.529
1519.1000, -81.417
1519.1200, -84.868
1519.1400, -87.022
1519.1600,-210.000
1519.1800, -84.836
1519.2000,-210.000
1519.2200,-210.000
1519.2400, -85.383
1519.2600, -89.078
1519.2800,-210.000
1519.3000,-210.000
1519.3200, -84.633
1519.3400, -87.777
1519.3600,-210.000
1519.3800, -90.878
1519.4000, -90.757
1519.4200, -86.090
1519.4400, -88.742
1519.4600,-210.000
1519.4800, -87.226
1519.5000,-210.000
1519.5200, -90.213
1519.5400, -89.036
1519.5600, -96.200
1519.5800,-210.000
1519.6000,-210.000
1519.6200,-210.000
1519.6400,-210.000
1519.6600, -89.333
1519.6800,-210.000
1519.7000, -82.264
1519.7200,-210.000
1519.7400, -82.469
1519.7600, -84.041
1519.7800, -84.232
1519.8000, -84.734
1519.8200,-210.000
1519.8400, -86.930
1519.8600,-210.000
1519.8800,-210.000
1519.9000, -87.800
1519.9200, -84.157
1519.9400, -97.431
1519.9600, -85.479
1519.9800,-210.000
1520.0000, -83.163
1520.0200, -88.085
1520.0400, -88.289
1520.0600, -92.692
1520.0800, -87.134
1520.1000, -86.816
1520.1200,-111.343
1520.1400,-210.000
1520.1600, -86.870
1520.1800,-210.000
1520.2000, -84.447
1520.2200, -84.701
1520.2400, -93.339
1520.2600,-210.000
1520.2800,-210.000
1520.3000,-210.000
1520.3200, -83.252
1520.3400, -86.352
1520.3600,-210.000
1520.3800, -89.083
1520.4000, -83.712
1520.4200, -84.709
1520.4400,-210.000
1520.4600, -86.937
1520.4800, -86.295
1520.5000,-210.000
1520.5200,-210.000
1520.5400, -80.848
1520.5600, -89.096
1520.5800,-210.000
1520.6000, -89.368
1520.6200, -91.244
1520.6400, -84.018
1520.6600, -89.811
1520.6800,-210.000
1520.7000, -88.350
1520.7200, -85.580
1520.7400, -86.205
1520.7600, -84.976
1520.7800,-210.000
1520.8000,-210.000
1520.8200,-210.000
1520.8400, -86.917
1520.8600, -84.607
1520.8800, -86.863
1520.9000, -89.774
1520.9200, -93.812
1520.9400, -95.814
1520.9600, -92.405
1520.9800, -89.967
1521.0000, -86.189
1521.0200, -86.905
1521.0400,-210.000
1521.0600,-210.000
1521.0800, -84.192
1521.1000,-210.000
1521.1200, -85.397
1521.1400, -86.050
1521.1600,-210.000
1521.1800, -84.776
1521.2000, -87.042
1521.2200, -84.608
1521.2400, -90.021
1521.2600, -97.824
1521.2800, -84.309
1521.3000,-210.000
1521.3200, -90.748
1521.3400, -89.973
1521.3600, -86.214
1521.3800,-210.000
1521.4000, -83.653
1521.4200, -90.554
1521.4400, -93.573
1521.4600,-210.000
1521.4800, -83.446
1521.5000, -95.660
1521.5200, -83.790
1521.5400,-210.000
1521.5600, -87.161
1521.5800,-210.000
1521.6000, -87.056
1521.6200,-210.000
1521.6400, -82.169
1521.6600,-210.000
1521.6800,-210.000
1521.7000, -82.682
1521.7200, -94.151
1521.7400,-210.000
1521.7600,-210.000
1521.7800, -82.358
1521.8000,-210.000
1521.8200, -81.774
1521.8400, -90.797
1521.8600,-210.000
1521.8800, -83.299
1521.9000, -92.949
1521.9200, -84.569
1521.9400,-210.000
1521.9600,-210.000
1521.9800,-210.000
1522.0000, -82.496
1522.0200, -82.839
1522.0400,-210.000
1522.0600, -87.758
1522.0800,-210.000
1522.1000,-210.000
1522.1200, -87.303
1522.1400, -87.051
1522.1600, -86.534
1522.1800,-210.000
1522.2000, -80.269
1522.2200,-210.000
1522.2400,-210.000
1522.2600, -86.336
1522.2800, -88.603
1522.3000, -86.350
1522.3200,-210.000
1522.3400,-210.000
1522.3600, -88.276
1522.3800, -89.703
1522.4000,-210.000
1522.4200, -93.111
1522.4400, -87.446
1522.4600,-105.729
1522.4800, -89.597
1522.5000, -86.168
1522.5200,-210.000
1522.5400,-210.000
1522.5600,-210.000
1522.5800, -90.379
1522.6000, -82.986
1522.6200,-210.000
1522.6400, -84.725
1522.6600, -89.394
1522.6800, -85.507
1522.7000, -84.912
1522.7200,-210.000
1522.7400, -84.706
1522.7600,-210.000
1522.7800, -88.108
1522.8000, -84.538
1522.8200,-210.000
1522.8400, -85.012
1522.8600, -88.470
1522.8800,-210.000
1522.9000, -90.067
1522.9200, -85.355
1522.9400,-210.000
1522.9600, -88.118
1522.9800, -88.890
1523.0000, -83.417
1523.0200, -91.085
1523.0400, -85.535
1523.0600, -86.944
1523.0800,-210.000
1523.1000,-210.000
1523.1200,-210.000
1523.1400, -80.912
1523.1600, -88.557
1523.1800, -82.464
1523.2000, -90.150
1523.2200,-210.000
1523.2400, -83.651
1523.2600, -86.788
1523.2800,-210.000
1523.3000, -89.797
1523.3200,-210.000
1523.3400, -83.805
1523.3600, -83.985
1523.3800,-210.000
1523.4000, -90.914
1523.4200, -82.996
1523.4400, -83.289
1523.4600, -85.798
1523.4800, -85.755
1523.5000,-210.000
1523.5200, -84.987
1523.5400, -89.480
1523.5600, -82.092
1523.5800,-210.000
1523.6000, -83.271
1523.6200, -86.539
1523.6400,-210.000
1523.6600, -85.761
1523.6800,-210.000
1523.7000, -87.101
1523.7200, -81.589
1523.7400,-210.000
1523.7600, -85.333
1523.7800, -98.358
1523.8000,-210.000
1523.8200, -83.014
1523.8400, -91.342
1523.8600, -87.942
1523.8800, -87.441
1523.9000, -85.135
1523.9200,-122.547
1523.9400,-210.000
1523.9600, -87.990
1523.9800, -88.211
1524.0000, -83.730
1524.0200, -86.912
1524.0400,-210.000
1524.0600,-210.000
1524.0800, -89.601
1524.1000, -83.440
1524.1200,-210.000
1524.1400, -82.346
1524.1600,-210.000
1524.1800, -82.901
1524.2000,-210.000
1524.2200, -83.667
1524.2400,-210.000
1524.2600, -96.673
1524.2800, -93.046
1524.3000, -88.864
1524.3200, -86.374
1524.3400, -92.647
1524.3600, -84.056
1524.3800, -86.875
1524.4000,-210.000
1524.4200, -94.689
1524.4400, -84.203
1524.4600,-210.000
1524.4800, -83.373
1524.5000,-210.000
1524.5200, -84.649
1524.5400, -84.910
1524.5600,-210.000
1524.5800, -98.801
1524.6000, -90.066
1524.6200, -85.035
1524.6400, -88.379
1524.6600, -81.325
1524.6800,-210.000
1524.7000, -88.302
1524.7200, -82.005
1524.7400, -83.943
1524.7600,-210.000
1524.7800,-210.000
1524.8000, -83.674
1524.8200,-210.000
1524.8400,-210.000
1524.8600,-210.000
1524.8800, -82.372
1524.9000,-210.000
1524.9200, -82.670
1524.9400, -85.279
1524.9600,-105.443
1524.9800, -87.064
1525.0000, -85.638
1525.0200, -91.345
1525.0400, -87.043
1525.0600,-210.000
1525.0800, -84.148
1525.1000,-210.000
1525.1200, -90.934
1525.1400, -87.490
1525.1600, -96.204
1525.1800, -85.494
1525.2000,-210.000
1525.2200, -84.292
1525.2400, -83.136
1525.2600, -85.858
1525.2800,-210.000
1525.3000, -86.762
1525.3200,-210.000
1525.3400, -88.333
1525.3600, -90.064
1525.3800,-210.000
1525.4000, -85.385
1525.4200,-210.000
1525.4400, -85.841
1525.4600, -88.283
1525.4800,-210.000
1525.5000, -83.494
1525.5200, -88.962
1525.5400, -93.024
1525.5600,-210.000
1525.5800,-210.000
1525.6000, -91.709
1525.6200, -87.699
1525.6400,-210.000
1525.6600,-210.000
1525.6800, -95.397
1525.7000, -88.026
1525.7200, -86.226
1525.7400, -97.038
1525.7600,-210.000
1525.7800, -88.358
1525.8000, -86.694
1525.8200, -84.836
1525.8400,-210.000
1525.8600, -84.905
1525.8800,-210.000
1525.9000, -83.490
1525.9200, -82.879
1525.9400,-210.000
1525.9600,-210.000
1525.9800, -83.826
1526.0000,-210.000
1526.0200,-210.000
1526.0400,-210.000
1526.0600,-210.000
1526.0800, -93.033
1526.1000, -81.866
1526.1200, -85.544
1526.1400, -85.381
1526.1600,-210.000
1526.1800,-210.000
1526.2000, -83.168
1526.2200, -85.579
1526.2400, -90.704
1526.2600, -87.979
1526.2800, -84.259
1526.3000,-210.000
1526.3200, -82.305
1526.3400,-210.000
1526.3600,-105.337
1526.3800, -85.071
1526.4000, -85.732
1526.4200, -86.629
1526.4400, -99.830
1526.4600, -87.465
1526.4800,-210.000
1526.5000, -90.736
1526.5200, -81.573
1526.5400, -94.221
1526.5600,-210.000
1526.5800, -89.561
1526.6000, -85.256
1526.6200,-210.000
1526.6400, -85.527
1526.6600, -87.540
1526.6800,-210.000
1526.7000, -92.255
1526.7200, -84.524
1526.7400,-210.000
1526.7600, -82.579
1526.7800,-210.000
1526.8000, -83.408
1526.8200, -93.308
1526.8400,-210.000
1526.8600, -82.670
1526.8800,-210.000
1526.9000, -87.126
1526.9200,-210.000
1526.9400,-210.000
1526.9600, -82.861
1526.9800,-210.000
1527.0000, -85.293
1527.0200,-110.349
1527.0400, -82.197
1527.0600,-210.000
1527.0800,-210.000
1527.1000, -88.735
1527.1200,-210.000
1527.1400, -82.516
1527.1600,-210.000
1527.1800, -89.465
1527.2000, -84.990
1527.2200,-210.000
1527.2400,-102.335
1527.2600, -87.008
1527.2800, -86.129
1527.3000, -84.489
1527.3200, -95.035
1527.3400, -87.865
1527.3600, -91.498
1527.3800,-210.000
1527.4000, -89.600
1527.4200,-210.000
1527.4400, -81.465
1527.4600,-210.000
1527.4800,-210.000
1527.5000, -91.987
1527.5200, -98.972
1527.5400, -91.543
1527.5600, -83.807
1527.5800, -84.830
1527.6000,-210.000
1527.6200, -84.054
1527.6400, -82.494
1527.6600,-210.000
1527.6800, -82.672
1527.7000, -88.764
1527.7200, -86.584
1527.7400,-210.000
1527.7600, -84.021
1527.7800, -93.892
1527.8000,-210.000
1527.8200, -95.398
1527.8400,-210.000
1527.8600, -81.217
1527.8800,-210.000
1527.9000,-210.000
1527.9200, -85.076
1527.9400, -86.215
1527.9600, -87.285
1527.9800,-210.000
1528.0000,-210.000
1528.0200, -89.117
1528.0400, -84.166
1528.0600, -82.152
1528.0800, -93.005
1528.1000,-210.000
1528.1200, -92.168
1528.1400, -89.710
1528.1600,-210.000
1528.1800, -85.048
1528.2000, -84.492
1528.2200, -84.552
1528.2400,-210.000
1528.2600, -86.675
1528.2800, -83.988
1528.3000,-210.000
1528.3200, -87.702
1528.3400,-210.000
1528.3600, -83.390
1528.3800, -80.689
1528.4000,-210.000
1528.4200,-210.000
1528.4400, -86.564
1528.4600, -84.706
1528.4800, -85.640
1528.5000, -92.031
1528.5200, -90.714
1528.5400,-210.000
1528.5600, -89.947
1528.5800,-210.000
1528.6000, -84.499
1528.6200, -83.444
1528.6400, -86.847
1528.6600, -81.880
1528.6800, -93.906
1528.7000, -85.988
1528.7200, -89.385
1528.7400,-210.000
1528.7600, -84.364
1528.7800,-210.000
1528.8000, -90.090
1528.8200, -84.660
1528.8400,-210.000
1528.8600,-210.000
1528.8800, -87.612
1528.9000,-210.000
1528.9200, -82.646
1528.9400, -84.584
1528.9600,-210.000
1528.9800, -89.894
1529.0000,-210.000
1529.0200, -87.834
1529.0400, -86.041
1529.0600, -84.496
1529.0800,-210.000
1529.1000,-210.000
1529.1200,-210.000
1529.1400, -81.986
1529.1600,-210.000
1529.1800, -89.422
1529.2000,-210.000
1529.2200,-210.000
1529.2400,-210.000
1529.2600,-210.000
1529.2800, -84.574
1529.3000,-210.000
1529.3200,-210.000
1529.3400, -80.800
1529.3600, -90.313
1529.3800,-210.000
1529.4000, -87.492
1529.4200, -87.756
1529.4400, -88.740
1529.4600, -85.065
1529.4800, -95.192
1529.5000, -87.986
1529.5200,-210.000
1529.5400, -92.344
1529.5600, -91.284
1529.5800,-210.000
1529.6000, -84.436
1529.6200, -83.705
1529.6400, -89.734
1529.6600, -84.918
1529.6800,-100.818
1529.7000,-210.000
1529.7200, -86.370
1529.7400, -89.036
1529.7600, -89.282
1529.7800,-210.000
1529.8000,-210.000
1529.8200,-210.000
1529.8400,-210.000
1529.8600, -86.118
1529.8800,-210.000
1529.9000,-210.000
1529.9200,-210.000
1529.9400, -92.302
1529.9600, -87.843
1529.9800, -86.701
1530.0000, -84.905
1530.0200, -84.395
1530.0400,-210.000
1530.0600, -84.158
1530.0800,-210.000
1530.1000,-210.000
1530.1200, -87.834
1530.1400, -86.221
1530.1600, -85.788
1530.1800, -85.117
1530.2000,-210.000
1530.2200,-210.000
1530.2400, -85.903
1530.2600, -88.138
1530.2800,-210.000
1530.3000, -99.421
1530.3200, -91.022
1530.3400, -83.159
1530.3600,-210.000
1530.3800, -82.693
1530.4000, -85.000
1530.4200,-210.000
1530.4400, -88.393
1530.4600,-210.000
1530.4800, -92.027
1530.5000,-210.000
1530.5200, -99.377
1530.5400, -91.585
1530.5600,-210.000
1530.5800, -85.467
1530.6000,-210.000
1530.6200, -82.015
1530.6400,-210.000
1530.6600,-210.000
1530.6800,-210.000
1530.7000,-210.000
1530.7200, -82.752
1530.7400,-210.000
1530.7600, -85.540
1530.7800, -84.704
1530.8000,-210.000
1530.8200, -82.182
1530.8400, -85.641
1530.8600,-210.000
1530.8800, -88.673
1530.9000, -97.932
1530.9200, -84.976
1530.9400,-210.000
1530.9600, -81.840
1530.9800, -88.308
1531.0000, -88.524
1531.0200, -90.506
1531.0400,-100.459
1531.0600, -95.553
1531.0800, -83.382
1531.1000, -94.853
1531.1200,-210.000
1531.1400, -85.011
1531.1600,-210.000
1531.1800,-210.000
1531.2000, -85.756
1531.2200, -86.394
1531.2400,-210.000
1531.2600, -85.356
1531.2800, -83.371
1531.3000,-105.077
1531.3200, -85.638
1531.3400,-210.000
1531.3600,-210.000
1531.3800, -85.723
1531.4000, -89.868
1531.4200, -84.756
1531.4400,-210.000
1531.4600, -83.084
1531.4800, -85.478
1531.5000,-210.000
1531.5200,-210.000
1531.5400,-210.000
1531.5600, -87.977
1531.5800, -85.255
1531.6000, -93.228
1531.6200, -85.867
1531.6400,-210.000
1531.6600, -87.536
1531.6800, -84.294
1531.7000,-210.000
1531.7200, -89.963
1531.7400, -89.306
1531.7600,-105.031
1531.7800, -83.628
1531.8000,-210.000
1531.8200, -85.401
1531.8400, -86.977
1531.8600, -87.812
1531.8800, -86.453
1531.9000, -86.462
1531.9200, -90.839
1531.9400,-210.000
1531.9600, -81.840
1531.9800,-210.000
1532.0000, -91.428
1532.0200, -95.544
1532.0400, -86.259
1532.0600, -94.524
1532.0800,-210.000
1532.1000, -82.582
1532.1200, -86.474
1532.1400,-210.000
1532.1600, -87.838
1532.1800, -93.251
1532.2000,-210.000
1532.2200, -91.254
1532.2400,-100.516
1532.2600, -84.349
1532.2800, -97.363
1532.3000,-210.000
1532.3200,-210.000
1532.3400, -82.972
1532.3600, -89.099
1532.3800,-210.000
1532.4000, -90.103
1532.4200,-210.000
1532.4400, -91.694
1532.4600, -85.390
1532.4800,-210.000
1532.5000, -98.867
1532.5200, -84.004
1532.5400,-210.000
1532.5600,-210.000
1532.5800, -83.616
1532.6000, -91.425
1532.6200,-210.000
1532.6400, -84.236
1532.6600, -87.572
1532.6800,-210.000
1532.7000,-210.000
1532.7200, -85.046
1532.7400, -91.555
1532.7600,-210.000
1532.7800, -90.086
1532.8000, -89.412
1532.8200,-210.000
1532.8400,-210.000
1532.8600, -93.205
1532.8800, -95.572
1532.9000,-210.000
1532.9200, -83.158
1532.9400, -84.869
1532.9600, -84.421
1532.9800,-210.000
1533.0000,-101.906
1533.0200, -91.667
1533.0400,-210.000
1533.0600, -89.486
1533.0800, -84.155
1533.1000, -89.003
1533.1200,-210.000
1533.1400,-210.000
1533.1600, -92.819
1533.1800, -84.938
1533.2000, -84.817
1533.2200,-210.000
1533.2400, -97.949
1533.2600, -88.395
1533.2800, -94.067
1533.3000, -87.599
1533.3200, -83.423
1533.3400,-210.000
1533.3600, -83.057
1533.3800, -86.272
1533.4000,-210.000
1533.4200, -85.789
1533.4400,-210.000
1533.4600, -87.204
1533.4800,-210.000
1533.5000, -85.245
1533.5200, -87.502
1533.5400, -82.696
1533.5600,-210.000
1533.5800,-210.000
1533.6000, -89.900
1533.6200, -84.336
1533.6400, -84.708
1533.6600,-210.000
1533.6800, -84.347
1533.7000,-210.000
1533.7200, -87.329
1533.7400, -92.413
1533.7600,-210.000
1533.7800, -86.787
1533.8000, -85.685
1533.8200,-210.000
1533.8400, -92.338
1533.8600, -85.809
1533.8800,-210.000
1533.9000,-210.000
1533.9200,-210.000
1533.9400, -88.612
1533.9600, -82.188
1533.9800,-210.000
1534.0000, -87.010
1534.0200,-210.000
1534.0400, -82.713
1534.0600,-210.000
1534.0800,-210.000
1534.1000, -85.818
1534.1200, -87.750
1534.1400, -87.968
1534.1600, -87.190
1534.1800, -85.758
1534.2000, -86.813
1534.2200,-210.000
1534.2400, -92.696
1534.2600,-210.000
1534.2800, -89.569
1534.3000, -92.183
1534.3200,-210.000
1534.3400, -89.417
1534.3600,-210.000
1534.3800, -85.337
1534.4000,-210.000
1534.4200, -83.503
1534.4400, -88.074
1534.4600, -86.162
1534.4800, -84.247
1534.5000,-210.000
1534.5200, -92.852
1534.5400, -84.005
1534.5600,-210.000
1534.5800,-210.000
1534.6000,-210.000
1534.6200, -82.352
1534.6400, -87.978
1534.6600,-210.000
1534.6800, -91.413
1534.7000, -96.447
1534.7200,-210.000
1534.7400,-210.000
1534.7600, -85.816
1534.7800,-210.000
1534.8000, -90.264
1534.8200, -87.990
1534.8400, -91.116
1534.8600, -90.441
1534.8800,-210.000
1534.9000, -84.593
1534.9200, -89.513
1534.9400, -85.634
1534.9600, -85.301
1534.9800,-210.000
1535.0000,-210.000
1535.0200,-210.000
1535.0400, -82.240
1535.0600,-210.000
1535.0800, -94.702
1535.1000, -86.452
1535.1200,-210.000
1535.1400, -81.969
1535.1600, -83.345
1535.1800,-210.000
1535.2000, -84.004
1535.2200,-210.000
1535.2400, -84.391
1535.2600,-210.000
1535.2800, -81.784
1535.3000,-210.000
1535.3200,-210.000
1535.3400, -87.181
1535.3600, -91.957
1535.3800, -86.903
1535.4000,-210.000
1535.4200, -91.274
1535.4400,-100.720
1535.4600, -85.506
1535.4800,-210.000
1535.5000,-210.000
1535.5200, -81.794
1535.5400, -94.922
1535.5600, -93.209
1535.5800,-210.000
1535.6000,-210.000
1535.6200, -83.014
1535.6400,-210.000
1535.6600, -85.789
1535.6800,-210.000
1535.7000, -88.438
1535.7200, -85.082
1535.7400, -85.716
1535.7600,-210.000
1535.7800, -84.690
1535.8000, -86.606
1535.8200, -84.213
1535.8400, -89.309
1535.8600, -86.854
1535.8800,-210.000
1535.9000,-210.000
1535.9200,-210.000
1535.9400, -83.004
1535.9600,-210.000
1535.9800, -82.948
1536.0000, -82.669
1536.0200,-210.000
1536.0400, -86.847
1536.0600, -93.677
1536.0800,-210.000
1536.1000, -88.996
1536.1200, -85.180
1536.1400, -85.656
1536.1600,-210.000
1536.1800, -91.999
1536.2000, -82.632
1536.2200, -85.689
1536.2400, -91.863
1536.2600,-210.000
1536.2800, -86.060
1536.3000, -91.487
1536.3200,-210.000
1536.3400,-210.000
1536.3600, -81.531
1536.3800, -87.094
1536.4000, -83.787
1536.4200, -88.279
1536.4400,-210.000
1536.4600, -83.350
1536.4800,-210.000
1536.5000,-210.000
1536.5200,-210.000
1536.5400, -92.545
1536.5600, -86.717
1536.5800, -91.986
1536.6000, -82.151
1536.6200, -84.697
1536.6400,-210.000
1536.6600,-210.000
1536.6800,-210.000
1536.7000,-210.000
1536.7200, -91.072
1536.7400,-210.000
1536.7600,-210.000
1536.7800,-210.000
1536.8000, -86.094
1536.8200, -93.270
1536.8400,-210.000
1536.8600, -85.923
1536.8800, -81.572
1536.9000, -80.674
1536.9200,-210.000
1536.9400,-210.000
1536.9600, -84.017
1536.9800, -89.562
1537.0000,-210.000
1537.0200, -86.298
1537.0400, -87.338
1537.0600, -83.032
1537.0800,-210.000
1537.1000, -83.437
1537.1200, -86.772
1537.1400, -94.506
1537.1600, -88.640
1537.1800,-210.000
1537.2000,-210.000
1537.2200, -80.706
1537.2400,-210.000
1537.2600, -83.738
1537.2800,-210.000
1537.3000, -81.164
1537.3200, -83.434
1537.3400,-210.000
1537.3600,-210.000
1537.3800,-210.000
1537.4000, -83.244
1537.4200,-210.000
1537.4400, -83.061
1537.4600,-210.000
1537.4800, -81.837
1537.5000,-100.560
1537.5200,-210.000
1537.5400, -90.815
1537.5600, -84.921
1537.5800, -89.197
1537.6000, -91.194
1537.6200, -87.763
1537.6400, -85.095
1537.6600, -86.600
1537.6800, -87.158
1537.7000, -93.992
1537.7200,-210.000
1537.7400, -85.467
1537.7600,-210.000
1537.7800, -93.661
1537.8000, -86.109
1537.8200, -84.596
1537.8400,-109.282
1537.8600, -83.745
1537.8800,-210.000
1537.9000, -89.889
1537.9200, -97.281
1537.9400, -81.296
1537.9600,-210.000
1537.9800, -89.782
1538.0000,-210.000
1538.0200, -92.380
1538.0400, -90.152
1538.0600, -91.974
1538.0800,-210.000
1538.1000, -83.169
1538.1200, -86.948
1538.1400,-210.000
1538.1600, -86.577
1538.1800,-210.000
1538.2000, -86.174
1538.2200, -82.451
1538.2400,-210.000
1538.2600,-210.000
1538.2800, -84.550
1538.3000,-210.000
1538.3200, -80.812
1538.3400, -88.307
1538.3600,-210.000
1538.3800, -89.445
1538.4000,-210.000
1538.4200, -86.915
1538.4400,-210.000
1538.4600, -85.318
1538.4800, -83.191
1538.5000, -91.559
1538.5200, -84.444
1538.5400,-210.000
1538.5600, -94.301
1538.5800, -90.641
1538.6000, -85.080
1538.6200, -96.177
1538.6400,-210.000
1538.6600,-210.000
1538.6800, -85.520
1538.7000, -85.152
1538.7200, -89.219
1538.7400,-210.000
1538.7600, -85.218
1538.7800,-210.000
1538.8000, -87.566
1538.8200, -87.885
1538.8400,-210.000
1538.8600, -81.964
1538.8800, -86.193
1538.9000,-210.000
1538.9200, -87.220
1538.9400,-210.000
1538.9600, -81.988
1538.9800,-210.000
1539.0000, -84.596
1539.0200, -92.139
1539.0400, -86.309
1539.0600, -85.963
1539.0800,-210.000
1539.1000,-210.000
1539.1200, -88.551
1539.1400, -89.315
1539.1600,-210.000
1539.1800, -86.548
1539.2000,-210.000
1539.2200,-210.000
1539.2400, -82.678
1539.2600,-210.000
1539.2800,-210.000
1539.3000, -87.416
1539.3200, -92.011
1539.3400, -83.808
1539.3600, -81.645
1539.3800,-210.000
1539.4000, -83.729
1539.4200, -85.647
1539.4400,-210.000
1539.4600, -89.742
1539.4800, -85.064
1539.5000,-210.000
1539.5200,-210.000
1539.5400, -83.043
1539.5600, -87.771
1539.5800, -87.300
1539.6000, -92.318
1539.6200,-210.000
1539.6400, -91.521
1539.6600, -82.922
1539.6800, -86.403
1539.7000,-210.000
1539.7200,-210.000
1539.7400, -85.170
1539.7600, -81.949
1539.7800,-210.000
1539.8000, -90.752
1539.8200, -86.197
1539.8400, -88.609
1539.8600, -84.566
1539.8800, -92.806
1539.9000, -89.564
1539.9200,-210.000
1539.9400, -88.371
1539.9600, -85.996
1539.9800, -87.674
1540.0000, -94.835
1540.0200, -84.904
1540.0400, -90.625
1540.0600,-210.000
1540.0800, -85.060
1540.1000,-210.000
1540.1200, -97.566
1540.1400, -92.771
1540.1600, -88.116
1540.1800,-210.000
1540.2000,-210.000
1540.2200,-210.000
1540.2400,-210.000
1540.2600, -85.879
1540.2800,-210.000
1540.3000, -85.791
1540.3200, -91.240
1540.3400,-210.000
1540.3600, -83.923
1540.3800, -81.718
1540.4000,-210.000
1540.4200,-210.000
1540.4400, -88.944
1540.4600, -84.962
1540.4800, -86.299
1540.5000, -84.080
1540.5200,-210.000
1540.5400,-210.000
1540.5600, -85.589
1540.5800, -85.160
1540.6000, -83.232
1540.6200,-210.000
1540.6400,-210.000
1540.6600,-210.000
1540.6800, -86.678
1540.7000, -82.252
1540.7200, -88.744
1540.7400, -87.551
1540.7600,-210.000
1540.7800, -86.167
1540.8000, -85.746
1540.8200,-210.000
1540.8400, -91.043
1540.8600, -82.507
1540.8800, -86.149
1540.9000,-210.000
1540.9200, -83.150
1540.9400, -86.507
1540.9600, -92.061
1540.9800,-210.000
1541.0000,-210.000
1541.0200, -85.022
1541.0400, -87.391
1541.0600,-210.000
1541.0800, -88.067
1541.1000, -87.138
1541.1200, -80.793
1541.1400, -86.286
1541.1600,-210.000
1541.1800, -87.370
1541.2000,-210.000
1541.2200,-210.000
1541.2400, -85.536
1541.2600, -84.551
1541.2800, -88.146
1541.3000,-210.000
1541.3200,-210.000
1541.3400, -92.169
1541.3600, -84.373
1541.3800, -87.243
1541.4000,-210.000
1541.4200,-210.000
1541.4400, -82.907
1541.4600, -86.835
1541.4800,-210.000
1541.5000, -87.037
1541.5200,-210.000
1541.5400, -88.517
1541.5600,-210.000
1541.5800, -89.104
1541.6000,-210.000
1541.6200,-210.000
1541.6400, -81.458
1541.6600,-210.000
1541.6800, -91.037
1541.7000, -82.753
1541.7200, -85.599
1541.7400, -89.619
1541.7600,-210.000
1541.7800,-210.000
1541.8000, -81.728
1541.8200, -88.501
1541.8400, -89.096
1541.8600,-210.000
1541.8800, -83.381
1541.9000,-210.000
1541.9200, -93.882
1541.9400, -93.555
1541.9600, -86.108
1541.9800, -84.310
1542.0000,-210.000
1542.0200, -91.063
1542.0400, -83.580
1542.0600, -85.063
1542.0800,-210.000
1542.1000, -81.623
1542.1200, -85.219
1542.1400, -90.343
1542.1600, -85.827
1542.1800,-210.000
1542.2000, -84.448
1542.2200,-210.000
1542.2400,-210.000
1542.2600, -85.306
1542.2800,-210.000
1542.3000,-210.000
1542.3200,-210.000
1542.3400, -82.596
1542.3600,-210.000
1542.3800, -85.160
1542.4000,-210.000
1542.4200, -82.830
1542.4400, -87.529
1542.4600,-210.000
1542.4800, -82.146
1542.5000,-210.000
1542.5200, -92.463
1542.5400, -92.598
1542.5600, -88.737
1542.5800, -86.555
1542.6000, -87.223
1542.6200,-210.000
1542.6400, -93.949
1542.6600, -82.304
1542.6800, -86.576
1542.7000, -86.466
1542.7200,-210.000
1542.7400,-210.000
1542.7600,-210.000
1542.7800, -83.465
1542.8000, -84.129
1542.8200,-210.000
1542.8400, -86.025
1542.8600, -84.623
1542.8800, -88.604
1542.9000, -87.404
1542.9200, -86.148
1542.9400, -83.408
1542.9600, -86.950
1542.9800,-210.000
1543.0000, -87.480
1543.0200,-210.000
1543.0400, -83.229
1543.0600,-210.000
1543.0800,-210.000
1543.1000, -88.119
1543.1200, -81.986
1543.1400, -87.851
1543.1600, -95.623
1543.1800, -88.803
1543.2000, -83.223
1543.2200,-210.000
1543.2400, -88.536
1543.2600,-210.000
1543.2800, -85.736
1543.3000,-210.000
1543.3200,-210.000
1543.3400,-210.000
1543.3600, -85.055
1543.3800, -82.389
1543.4000,-210.000
1543.4200, -85.909
1543.4400,-210.000
1543.4600, -90.078
1543.4800, -86.990
1543.5000, -85.409
1543.5200, -89.587
1543.5400,-210.000
1543.5600, -82.853
1543.5800,-210.000
1543.6000,-210.000
1543.6200, -81.729
1543.6400, -88.450
1543.6600, -93.861
1543.6800,-210.000
1543.7000, -89.733
1543.7200, -82.700
1543.7400, -91.198
1543.7600, -82.194
1543.7800, -85.697
1543.8000,-210.000
1543.8200, -83.224
1543.8400, -87.617
1543.8600,-210.000
1543.8800,-210.000
1543.9000, -85.756
1543.9200, -84.655
1543.9400, -87.434
1543.9600,-210.000
1543.9800, -85.713
1544.0000,-210.000
1544.0200, -87.288
1544.0400, -90.900
1544.0600, -85.110
1544.0800,-210.000
1544.1000,-210.000
1544.1200, -86.143
1544.1400, -83.046
1544.1600, -89.447
1544.1800, -84.082
1544.2000,-210.000
1544.2200, -94.730
1544.2400, -87.418
1544.2600, -87.363
1544.2800,-210.000
1544.3000,-210.000
1544.3200, -82.871
1544.3400, -96.237
1544.3600,-210.000
1544.3800, -90.873
1544.4000,-210.000
1544.4200,-210.000
1544.4400, -91.673
1544.4600, -93.958
1544.4800, -83.392
1544.5000, -86.489
1544.5200,-210.000
1544.5400, -87.357
1544.5600, -89.678
1544.5800, -93.881
1544.6000, -90.836
1544.6200,-210.000
1544.6400, -91.286
1544.6600,-210.000
1544.6800, -96.801
1544.7000, -89.604
1544.7200, -91.987
1544.7400, -86.779
1544.7600,-210.000
1544.7800, -81.945
1544.8000, -87.673
1544.8200,-210.000
1544.8400, -86.288
1544.8600,-210.000
1544.8800, -92.061
1544.9000,-101.505
1544.9200, -86.461
1544.9400, -83.241
1544.9600, -87.363
1544.9800,-210.000
1545.0000, -83.792
1545.0200,-210.000
1545.0400, -84.304
1545.0600,-210.000
1545.0800, -82.304
1545.1000, -87.366
1545.1200, -87.978
1545.1400, -95.473
1545.1600, -94.221
1545.1800, -83.204
1545.2000,-210.000
1545.2200,-210.000
1545.2400, -81.000
1545.2600, -94.845
1545.2800, -89.558
1545.3000, -87.103
1545.3200, -84.262
1545.3400, -86.356
1545.3600,-210.000
1545.3800, -89.079
1545.4000, -91.069
1545.4200,-210.000
1545.4400, -92.356
1545.4600, -82.626
1545.4800, -84.131
1545.5000, -88.037
1545.5200, -88.990
1545.5400,-210.000
1545.5600, -82.486
1545.5800, -89.854
1545.6000, -85.892
1545.6200, -89.163
1545.6400,-210.000
1545.6600, -97.507
1545.6800, -84.319
1545.7000,-210.000
1545.7200, -86.371
1545.7400, -83.478
1545.7600, -84.407
1545.7800, -88.235
1545.8000,-210.000
1545.8200, -93.070
1545.8400, -87.084
1545.8600, -82.432
1545.8800,-210.000
1545.9000, -84.249
1545.9200,-210.000
1545.9400, -85.909
1545.9600, -86.838
1545.9800, -86.607
1546.0000,-210.000
1546.0200, -84.860
1546.0400,-210.000
1546.0600, -90.544
1546.0800, -85.261
1546.1000, -86.364
1546.1200, -85.765
1546.1400,-210.000
1546.1600, -92.318
1546.1800, -89.826
1546.2000, -87.923
1546.2200, -95.987
1546.2400,-210.000
1546.2600,-210.000
1546.2800, -82.768
1546.3000, -86.337
1546.3200, -85.337
1546.3400, -87.632
1546.3600,-210.000
1546.3800,-210.000
1546.4000,-210.000
1546.4200, -81.311
1546.4400, -83.687
1546.4600, -86.575
1546.4800, -88.558
1546.5000, -83.347
1546.5200,-210.000
1546.5400, -88.526
1546.5600, -90.379
1546.5800, -88.055
1546.6000,-210.000
1546.6200, -85.834
1546.6400, -84.369
1546.6600, -92.203
1546.6800, -86.789
1546.7000,-210.000
1546.7200, -87.639
1546.7400, -83.403
1546.7600,-210.000
1546.7800, -82.256
1546.8000, -85.870
1546.8200, -85.307
1546.8400, -92.503
1546.8600, -83.883
1546.8800,-210.000
1546.9000, -90.900
1546.9200, -83.223
1546.9400,-210.000
1546.9600, -91.010
1546.9800, -86.194
1547.0000, -93.360
1547.0200,-210.000
1547.0400, -80.794
1547.0600, -84.635
1547.0800,-210.000
1547.1000,-210.000
1547.1200,-210.000
1547.1400, -80.602
1547.1600, -85.757
1547.1800,-210.000
1547.2000,-210.000
1547.2200, -82.978
1547.2400,-210.000
1547.2600, -83.767
1547.2800, -84.694
1547.3000, -88.354
1547.3200,-210.000
1547.3400, -80.936
1547.3600,-210.000
1547.3800, -89.784
1547.4000, -88.006
1547.4200, -89.196
1547.4400, -84.996
1547.4600, -92.258
1547.4800,-210.000
1547.5000,-210.000
1547.5200, -84.547
1547.5400, -82.770
1547.5600,-210.000
1547.5800, -88.010
1547.6000,-210.000
1547.6200, -85.930
1547.6400, -87.015
1547.6600,-210.000
1547.6800, -86.899
1547.7000, -85.412
1547.7200,-210.000
1547.7400, -90.735
1547.7600, -83.505
1547.7800, -90.718
1547.8000, -85.584
1547.8200, -88.556
1547.8400,-210.000
1547.8600,-210.000
1547.8800, -88.957
1547.9000, -84.105
1547.9200,-210.000
1547.9400,-210.000
1547.9600, -81.929
1547.9800, -88.562
1548.0000,-210.000
1548.0200, -83.757
1548.0400, -84.694
1548.0600, -91.475
1548.0800, -89.111
1548.1000, -84.744
1548.1200, -89.742
1548.1400,-210.000
1548.1600, -87.298
1548.1800, -85.580
1548.2000,-210.000
1548.2200, -84.425
1548.2400,-210.000
1548.2600, -85.179
1548.2800, -89.846
1548.3000,-101.778
1548.3200,-210.000
1548.3400,-210.000
1548.3600, -91.343
1548.3800, -84.160
1548.4000, -82.782
1548.4200,-210.000
1548.4400, -89.921
1548.4600, -82.106
1548.4800, -84.432
1548.5000, -91.732
1548.5200,-210.000
1548.5400,-210.000
1548.5600,-210.000
1548.5800, -87.099
1548.6000,-210.000
1548.6200, -86.186
1548.6400,-210.000
1548.6600,-210.000
1548.6800, -82.138
1548.7000, -83.587
1548.7200,-210.000
1548.7400, -80.531
1548.7600,-210.000
1548.7800,-210.000
1548.8000, -82.127
1548.8200,-110.424
1548.8400,-210.000
1548.8600, -82.343
1548.8800,-210.000
1548.9000,-210.000
1548.9200, -85.279
1548.9400, -83.362
1548.9600, -83.552
1548.9800,-210.000
1549.0000, -85.931
1549.0200, -90.072
1549.0400, -85.396
1549.0600,-210.000
1549.0800,-210.000
1549.1000, -84.724
1549.1200,-210.000
1549.1400, -86.628
1549.1600,-210.000
1549.1800, -82.457
1549.2000, -83.766
1549.2200,-210.000
1549.2400,-210.000
1549.2600, -90.640
1549.2800, -82.650
1549.3000, -85.852
1549.3200, -86.235
1549.3400, -87.128
1549.3600, -85.924
1549.3800,-210.000
1549.4000,-210.000
1549.4200, -83.711
1549.4400,-100.102
1549.4600, -84.094
1549.4800,-210.000
1549.5000, -87.833
1549.5200,-210.000
1549.5400,-210.000
1549.5600, -86.553
1549.5800,-210.000
1549.6000, -83.151
1549.6200,-210.000
1549.6400,-210.000
1549.6600, -94.731
1549.6800, -85.382
1549.7000,-210.000
1549.7200, -87.138
1549.7400,-210.000
1549.7600,-210.000
1549.7800, -86.187
1549.8000,-210.000
1549.8200, -85.326
1549.8400, -85.854
1549.8600,-210.000
1549.8800, -85.965
1549.9000,-210.000
1549.9200, -84.877
1549.9400, -84.761
1549.9600, -88.952
1549.9800,-210.000
1550.0000,-210.000
1550.0200, -85.455
1550.0400,-210.000
1550.0600,-210.000
1550.0800, -85.940
1550.1000,-108.673
1550.1200, -86.873
1550.1400, -88.879
1550.1600, -92.695
1550.1800, -85.433
1550.2000,-210.000
1550.2200, -83.188
1550.2400,-210.000
1550.2600, -82.058
1550.2800, -89.142
1550.3000,-210.000
1550.3200, -81.339
1550.3400,-210.000
1550.3600, -96.236
1550.3800, -89.171
1550.4000,-210.000
1550.4200, -86.914
1550.4400,-210.000
1550.4600, -84.298
1550.4800, -83.436
1550.5000,-210.000
1550.5200, -88.856
1550.5400,-210.000
1550.5600, -86.086
1550.5800,-210.000
1550.6000, -82.974
1550.6200,-210.000
1550.6400, -82.225
1550.6600,-210.000
1550.6800, -88.237
1550.7000, -87.036
1550.7200, -90.441
1550.7400, -86.549
1550.7600, -83.755
1550.7800,-210.000
1550.8000,-210.000
1550.8200,-210.000
1550.8400,-210.000
1550.8600, -81.418
1550.8800,-210.000
1550.9000,-210.000
1550.9200,-210.000
1550.9400, -84.485
1550.9600, -88.395
1550.9800,-210.000
1551.0000, -82.713
1551.0200, -89.515
1551.0400, -87.456
1551.0600, -83.706
1551.0800, -88.520
1551.1000, -84.755
1551.1200, -84.415
1551.1400, -87.237
1551.1600, -91.684
1551.1800, -84.333
1551.2000, -90.209
1551.2200, -87.477
1551.2400,-210.000
1551.2600, -82.350
1551.2800,-210.000
1551.3000,-210.000
1551.3200, -92.875
1551.3400,-210.000
1551.3600,-210.000
1551.3800, -81.846
1551.4000,-210.000
1551.4200, -84.655
1551.4400, -84.437
1551.4600, -88.227
1551.4800, -87.600
1551.5000, -85.000
1551.5200,-210.000
1551.5400, -83.256
1551.5600,-210.000
1551.5800, -87.641
1551.6000,-210.000
1551.6200, -94.532
1551.6400, -81.134
1551.6600,-210.000
1551.6800, -88.865
1551.7000, -88.592
1551.7200, -91.722
1551.7400,-210.000
1551.7600, -92.011
1551.7800, -87.720
1551.8000, -98.917
1551.8200,-210.000
1551.8400, -94.190
1551.8600, -88.353
1551.8800,-210.000
1551.9000, -91.113
1551.9200, -87.628
1551.9400,-210.000
1551.9600,-210.000
1551.9800, -81.810
1552.0000,-210.000
1552.0200,-210.000
1552.0400, -92.193
1552.0600, -83.270
1552.0800, -91.983
1552.1000,-210.000
1552.1200, -86.498
1552.1400, -84.033
1552.1600, -85.911
1552.1800, -82.540
1552.2000, -91.671
1552.2200, -83.315
1552.2400, -88.439
1552.2600, -89.655
1552.2800,-210.000
1552.3000,-210.000
1552.3200, -88.293
1552.3400, -87.498
1552.3600, -86.857
1552.3800,-210.000
1552.4000, -92.208
1552.4200, -91.739
1552.4400, -89.570
1552.4600,-210.000
1552.4800,-210.000
1552.5000,-210.000
1552.5200, -83.466
1552.5400,-210.000
1552.5600, -82.569
1552.5800, -87.950
1552.6000, -84.365
1552.6200, -88.258
1552.6400,-210.000
1552.6600, -90.226
1552.6800, -98.691
1552.7000,-210.000
1552.7200, -84.405
1552.7400,-210.000
1552.7600, -85.639
1552.7800,-210.000
1552.8000, -80.605
1552.8200, -86.626
1552.8400, -89.147
1552.8600, -93.620
1552.8800,-210.000
1552.9000, -87.856
1552.9200, -87.371
1552.9400, -90.507
1552.9600, -89.431
1552.9800,-210.000
1553.0000,-210.000
1553.0200, -81.204
1553.0400,-210.000
1553.0600,-210.000
1553.0800, -85.214
1553.1000, -88.863
1553.1200, -92.135
1553.1400, -87.793
1553.1600, -84.334
1553.1800, -86.801
1553.2000,-210.000
1553.2200, -83.369
1553.2400, -88.026
1553.2600, -92.635
1553.2800, -85.195
1553.3000,-210.000
1553.3200, -83.546
1553.3400, -90.370
1553.3600, -86.267
1553.3800, -88.540
1553.4000,-210.000
1553.4200, -85.405
1553.4400,-210.000
1553.4600,-210.000
1553.4800, -84.308
1553.5000, -84.667
1553.5200, -85.685
1553.5400, -86.817
1553.5600,-210.000
1553.5800, -87.608
1553.6000,-210.000
1553.6200, -86.974
1553.6400, -83.860
1553.6600,-210.000
1553.6800,-210.000
1553.7000,-210.000
1553.7200, -81.980
1553.7400,-210.000
1553.7600, -81.092
1553.7800, -88.761
1553.8000,-210.000
1553.8200,-210.000
1553.8400,-210.000
1553.8600, -81.025
1553.8800, -86.440
1553.9000,-210.000
1553.9200, -86.187
1553.9400, -87.800
1553.9600,-210.000
1553.9800, -87.531
1554.0000, -82.197
1554.0200,-210.000
1554.0400, -82.196
1554.0600,-210.000
1554.0800,-210.000
1554.1000, -80.850
1554.1200, -88.428
1554.1400,-210.000
1554.1600,-210.000
1554.1800, -88.812
1554.2000,-210.000
1554.2200, -83.712
1554.2400,-210.000
1554.2600, -84.039
1554.2800,-210.000
1554.3000, -91.386
1554.3200, -83.730
1554.3400,-210.000
1554.3600, -81.235
1554.3800, -87.022
1554.4000, -88.751
1554.4200, -83.000
1554.4400,-210.000
1554.4600,-210.000
1554.4800, -93.304
1554.5000,-210.000
1554.5200, -84.333
1554.5400,-210.000
1554.5600, -82.339
1554.5800,-210.000
1554.6000, -81.202
1554.6200, -87.198
1554.6400,-210.000
1554.6600, -87.292
1554.6800, -86.586
1554.7000,-210.000
1554.7200,-210.000
1554.7400,-210.000
1554.7600,-109.006
1554.7800, -87.935
1554.8000,-210.000
1554.8200,-210.000
1554.8400, -83.228
1554.8600,-210.000
1554.8800, -87.761
1554.9000, -86.547
1554.9200,-210.000
1554.9400, -89.661
1554.9600, -92.248
1554.9800, -80.068
1555.0000, -83.362
1555.0200, -84.978
1555.0400, -90.259
1555.0600,-210.000
1555.0800, -83.138
1555.1000,-102.987
1555.1200, -92.247
1555.1400,-210.000
1555.1600, -83.703
1555.1800, -87.046
1555.2000, -90.147
1555.2200,-210.000
1555.2400, -83.199
1555.2600,-210.000
1555.2800, -82.097
1555.3000, -88.842
1555.3200,-210.000
1555.3400,-210.000
1555.3600, -84.059
1555.3800,-210.000
1555.4000,-210.000
1555.4200, -90.957
1555.4400, -84.165
1555.4600, -86.231
1555.4800, -82.591
1555.5000, -85.308
1555.5200, -91.340
1555.5400,-210.000
1555.5600, -84.011
1555.5800,-210.000
1555.6000, -93.884
1555.6200, -90.729
1555.6400, -86.764
1555.6600,-210.000
1555.6800, -85.141
1555.7000, -86.986
1555.7200,-210.000
1555.7400, -88.142
1555.7600, -85.018
1555.7800,-210.000
1555.8000, -90.177
1555.8200,-210.000
1555.8400, -85.478
1555.8600, -89.205
1555.8800, -92.830
1555.9000, -89.596
1555.9200,-210.000
1555.9400, -82.466
1555.9600,-210.000
1555.9800, -83.569
1556.0000,-210.000
1556.0200,-210.000
1556.0400,-210.000
1556.0600, -96.728
1556.0800, -80.434
1556.1000, -83.684
1556.1200, -87.299
1556.1400,-210.000
1556.1600, -97.825
1556.1800, -88.452
1556.2000, -91.420
1556.2200, -87.570
1556.2400, -87.032
1556.2600, -84.080
1556.2800, -80.052
1556.3000,-210.000
1556.3200,-105.322
1556.3400,-210.000
1556.3600, -90.093
1556.3800,-210.000
1556.4000, -86.412
1556.4200,-210.000
1556.4400, -82.440
1556.4600, -86.218
1556.4800,-210.000
1556.5000, -85.595
1556.5200,-210.000
1556.5400, -86.052
1556.5600, -91.305
1556.5800, -92.253
1556.6000,-210.000
1556.6200, -90.914
1556.6400, -84.925
1556.6600,-210.000
1556.6800, -84.740
1556.7000,-210.000
1556.7200, -88.451
1556.7400, -82.165
1556.7600,-210.000
1556.7800, -85.775
1556.8000, -84.879
1556.8200,-210.000
1556.8400, -83.288
1556.8600,-210.000
1556.8800, -85.472
1556.9000,-210.000
1556.9200, -84.190
1556.9400, -84.900
1556.9600,-210.000
1556.9800,-210.000
1557.0000, -83.955
1557.0200, -86.531
1557.0400,-210.000
1557.0600, -92.471
1557.0800, -80.548
1557.1000,-210.000
1557.1200, -85.466
1557.1400,-210.000
1557.1600, -87.300
1557.1800,-210.000
1557.2000, -82.364
1557.2200,-210.000
1557.2400, -85.039
1557.2600, -92.337
1557.2800, -88.706
1557.3000,-210.000
1557.3200, -88.877
1557.3400,-210.000
1557.3600,-210.000
1557.3800, -84.370
1557.4000, -95.628
1557.4200, -86.735
1557.4400,-210.000
1557.4600, -92.085
1557.4800,-210.000
1557.5000,-210.000
1557.5200, -84.227
1557.5400, -82.545
1557.5600, -87.418
1557.5800,-210.000
1557.6000,-210.000
1557.6200,-210.000
1557.6400,-210.000
1557.6600, -81.484
1557.6800, -87.164
1557.7000, -85.394
1557.7200, -95.684
1557.7400, -89.855
1557.7600,-210.000
1557.7800, -84.654
1557.8000, -83.073
1557.8200,-210.000
1557.8400, -85.609
1557.8600,-210.000
1557.8800, -91.106
1557.9000, -88.211
1557.9200, -88.971
1557.9400, -85.431
1557.9600, -81.777
1557.9800,-210.000
1558.0000, -86.952
1558.0200, -85.682
1558.0400, -93.549
1558.0600,-210.000
1558.0800, -94.368
1558.1000,-210.000
1558.1200, -82.371
1558.1400, -84.954
1558.1600, -85.152
1558.1800,-210.000
1558.2000, -85.935
1558.2200, -87.008
1558.2400,-210.000
1558.2600, -83.101
1558.2800, -87.913
1558.3000, -90.939
1558.3200, -86.210
1558.3400, -88.586
1558.3600,-210.000
1558.3800, -83.269
1558.4000, -87.497
1558.4200, -85.777
1558.4400,-210.000
1558.4600, -85.311
1558.4800, -86.537
1558.5000,-210.000
1558.5200, -86.569
1558.5400, -88.710
1558.5600,-210.000
1558.5800, -92.795
1558.6000, -90.629
1558.6200, -84.061
1558.6400,-210.000
1558.6600, -84.679
1558.6800, -93.786
1558.7000, -84.431
1558.7200, -92.840
1558.7400, -87.095
1558.7600,-210.000
1558.7800, -89.766
1558.8000,-210.000
1558.8200, -81.399
1558.8400, -91.179
1558.8600,-210.000
1558.8800,-210.000
1558.9000,-210.000
1558.9200, -89.052
1558.9400, -88.698
1558.9600, -84.598
1558.9800, -88.294
1559.0000, -97.955
1559.0200,-210.000
1559.0400, -83.231
1559.0600,-210.000
1559.0800, -88.531
1559.1000, -86.878
1559.1200,-210.000
1559.1400, -83.407
1559.1600, -89.435
1559.1800, -88.345
1559.2000,-210.000
1559.2200, -92.852
1559.2400, -91.662
1559.2600,-210.000
1559.2800, -87.768
1559.3000,-210.000
1559.3200,-210.000
1559.3400,-210.000
1559.3600, -80.966
1559.3800,-210.000
1559.4000, -90.642
1559.4200, -87.417
1559.4400, -84.079
1559.4600, -94.828
1559.4800, -86.259
1559.5000, -86.024
1559.5200,-210.000
1559.5400, -83.209
1559.5600,-210.000
1559.5800,-210.000
1559.6000, -82.256
1559.6200,-210.000
1559.6400, -83.727
1559.6600, -85.137
1559.6800, -88.365
1559.7000, -86.801
1559.7200,-210.000
1559.7400, -85.199
1559.7600, -88.861
1559.7800,-210.000
1559.8000,-210.000
1559.8200, -88.846
1559.8400, -82.819
1559.8600,-210.000
1559.8800,-210.000
1559.9000, -85.181
1559.9200, -86.981
1559.9400,-210.000
1559.9600, -86.178
1559.9800, -81.149
1560.0000,-100.273
1560.0200,-210.000
1560.0400, -96.551
1560.0600,-210.000
1560.0800,-210.000
1560.1000, -83.259
1560.1200, -88.954
1560.1400, -85.093
1560.1600, -86.763
1560.1800, -85.534
1560.2000,-210.000
1560.2200, -88.316
1560.2400, -86.871
1560.2600,-210.000
1560.2800,-210.000
1560.3000, -81.030
1560.3200, -94.615
1560.3400,-210.000
1560.3600, -91.885
1560.3800, -86.704
1560.4000, -90.592
1560.4200, -86.909
1560.4400, -92.550
1560.4600, -86.102
1560.4800, -86.682
1560.5000, -90.600
1560.5200,-210.000
1560.5400, -89.326
1560.5600,-210.000
1560.5800, -85.017
1560.6000,-210.000
1560.6200,-210.000
1560.6400,-210.000
1560.6600, -82.735
1560.6800,-210.000
1560.7000, -87.956
1560.7200, -93.187
1560.7400, -91.967
1560.7600,-210.000
1560.7800, -87.056
1560.8000, -92.748
1560.8200, -84.887
1560.8400, -87.950
1560.8600,-210.000
1560.8800, -87.444
1560.9000, -89.887
1560.9200, -86.618
1560.9400,-210.000
1560.9600, -87.836
1560.9800, -87.258
1561.0000,-210.000
1561.0200, -84.886
1561.0400, -87.312
1561.0600,-210.000
1561.0800, -82.571
1561.1000, -89.694
1561.1200,-210.000
1561.1400, -87.946
1561.1600, -91.752
1561.1800, -82.790
1561.2000,-210.000
1561.2200, -83.295
1561.2400, -89.111
1561.2600,-210.000
1561.2800, -88.813
1561.3000,-210.000
1561.3200,-210.000
1561.3400, -88.520
1561.3600, -83.083
1561.3800,-210.000
1561.4000,-210.000
1561.4200, -79.371
1561.4400,-210.000
1561.4600, -85.608
1561.4800, -83.135
1561.5000,-210.000
1561.5200, -90.095
1561.5400,-210.000
1561.5600, -88.197
1561.5800, -89.850
1561.6000, -95.890
1561.6200,-210.000
1561.6400,-210.000
1561.6600, -81.660
1561.6800, -91.861
1561.7000, -88.628
1561.7200, -85.963
1561.7400, -85.019
1561.7600,-210.000
1561.7800, -84.578
1561.8000,-210.000
1561.8200,-210.000
1561.8400,-210.000
1561.8600, -89.073
1561.8800, -83.391
1561.9000, -88.612
1561.9200,-210.000
1561.9400,-210.000
1561.9600, -81.186
1561.9800, -94.296
1562.0000,-210.000
1562.0200, -89.467
1562.0400, -86.113
1562.0600,-210.000
1562.0800,-210.000
1562.1000, -83.555
1562.1200,-210.000
1562.1400,-210.000
1562.1600, -82.327
1562.1800, -86.692
1562.2000, -88.997
1562.2200, -88.155
1562.2400, -88.613
1562.2600,-210.000
1562.2800, -89.322
1562.3000, -99.847
1562.3200, -86.281
1562.3400,-210.000
1562.3600, -94.870
1562.3800, -86.540
1562.4000, -90.060
1562.4200, -89.336
1562.4400, -87.178
1562.4600,-210.000
1562.4800, -84.904
1562.5000, -85.409
1562.5200, -93.377
1562.5400,-210.000
1562.5600, -95.743
1562.5800, -87.183
1562.6000,-210.000
1562.6200, -84.228
1562.6400,-210.000
1562.6600,-210.000
1562.6800,-210.000
1562.7000, -84.413
1562.7200, -85.250
1562.7400,-210.000
1562.7600,-100.024
1562.7800, -82.968
1562.8000, -84.532
1562.8200,-210.000
1562.8400, -90.472
1562.8600, -86.876
1562.8800, -89.377
1562.9000,-210.000
1562.9200, -82.601
1562.9400, -85.841
1562.9600, -94.795
1562.9800, -94.516
1563.0000,-210.000
1563.0200, -88.409
1563.0400,-210.000
1563.0600, -85.523
1563.0800, -85.483
1563.1000, -94.519
1563.1200, -86.616
1563.1400,-210.000
1563.1600, -85.242
1563.1800, -86.902
1563.2000, -85.663
1563.2200, -87.270
1563.2400, -91.997
1563.2600, -87.124
1563.2800,-210.000
1563.3000,-210.000
1563.3200, -91.030
1563.3400,-210.000
1563.3600, -83.131
1563.3800,-210.000
1563.4000, -81.081
1563.4200,-210.000
1563.4400,-210.000
1563.4600,-210.000
1563.4800,-210.000
1563.5000, -89.061
1563.5200, -82.584
1563.5400, -87.042
1563.5600,-210.000
1563.5800, -85.976
1563.6000, -87.093
1563.6200, -86.773
1563.6400,-210.000
1563.6600,-210.000
1563.6800, -81.359
1563.7000, -83.610
1563.7200,-210.000
1563.7400,-210.000
1563.7600, -84.863
1563.7800, -91.066
1563.8000, -88.036
1563.8200, -89.706
1563.8400,-210.000
1563.8600,-210.000
1563.8800, -82.843
1563.9000, -83.216
1563.9200, -84.180
1563.9400, -85.898
1563.9600, -89.105
1563.9800,-210.000
1564.0000, -81.746
1564.0200, -84.349
1564.0400, -91.681
1564.0600, -88.270
1564.0800, -83.917
1564.1000,-210.000
1564.1200, -94.296
1564.1400, -92.182
1564.1600, -84.811
1564.1800, -88.721
1564.2000,-210.000
1564.2200, -84.035
1564.2400,-210.000
1564.2600,-210.000
1564.2800, -89.467
1564.3000, -84.617
1564.3200, -85.483
1564.3400,-210.000
1564.3600, -88.941
1564.3800, -83.870
1564.4000,-210.000
1564.4200, -83.831
1564.4400,-210.000
1564.4600, -94.253
1564.4800, -83.954
1564.5000,-210.000
1564.5200, -89.160
1564.5400,-210.000
1564.5600, -85.311
1564.5800, -86.181
1564.6000, -84.783
1564.6200,-210.000
1564.6400, -86.637
1564.6600,-210.000
1564.6800, -87.675
1564.7000, -82.564
1564.7200,-210.000
1564.7400,-210.000
1564.7600, -83.923
1564.7800,-210.000
1564.8000, -94.213
1564.8200, -81.722
1564.8400,-210.000
1564.8600, -87.688
1564.8800,-210.000
1564.9000,-210.000
1564.9200,-210.000
1564.9400, -82.399
1564.9600,-210.000
1564.9800, -85.041
1565.0000, -82.318
1565.0200, -85.959
1565.0400,-210.000
1565.0600, -84.574
1565.0800, -89.752
1565.1000, -93.937
1565.1200,-210.000
1565.1400, -84.077
1565.1600, -81.377
1565.1800, -88.194
1565.2000,-210.000
1565.2200, -81.873
1565.2400,-210.000
1565.2600,-210.000
1565.2800, -88.266
1565.3000, -84.345
1565.3200,-210.000
1565.3400, -89.005
1565.3600,-210.000
1565.3800, -86.046
1565.4000,-210.000
1565.4200, -85.321
1565.4400,-210.000
1565.4600,-210.000
1565.4800,-210.000
1565.5000, -80.104
1565.5200,-210.000
1565.5400,-210.000
1565.5600, -82.378
1565.5800,-210.000
1565.6000, -82.757
1565.6200, -90.620
1565.6400,-210.000
1565.6600, -90.943
1565.6800, -93.369
1565.7000, -84.778
1565.7200,-101.790
1565.7400,-210.000
1565.7600,-210.000
1565.7800, -84.706
1565.8000,-210.000
1565.8200, -84.445
1565.8400,-210.000
1565.8600,-210.000
1565.8800, -82.130
1565.9000,-210.000
1565.9200, -81.077
1565.9400, -86.562
1565.9600, -90.372
1565.9800,-210.000
1566.0000, -89.261
1566.0200, -93.169
1566.0400, -88.571
1566.0600,-210.000
1566.0800, -84.715
1566.1000, -85.387
1566.1200, -80.099
1566.1400, -90.367
1566.1600, -88.884
1566.1800,-210.000
1566.2000, -88.887
1566.2200, -89.856
1566.2400, -83.087
1566.2600, -90.903
1566.2800, -88.122
1566.3000, -92.243
1566.3200, -85.091
1566.3400, -87.923
1566.3600,-210.000
1566.3800,-210.000
1566.4000, -93.809
1566.4200,-210.000
1566.4400, -83.603
1566.4600, -89.934
1566.4800, -91.732
1566.5000, -84.059
1566.5200,-210.000
1566.5400, -81.991
1566.5600,-210.000
1566.5800, -85.253
1566.6000,-210.000
1566.6200, -81.839
1566.6400, -84.692
1566.6600,-210.000
1566.6800,-210.000
1566.7000, -81.667
1566.7200, -85.493
1566.7400,-210.000
1566.7600, -87.193
1566.7800,-210.000
1566.8000,-210.000
1566.8200, -82.055
1566.8400, -99.071
1566.8600,-210.000
1566.8800, -82.941
1566.9000, -84.816
1566.9200,-210.000
1566.9400, -89.244
1566.9600, -89.276
1566.9800,-210.000
1567.0000, -88.917
1567.0200, -84.759
1567.0400, -86.158
1567.0600,-210.000
1567.0800, -90.274
1567.1000,-210.000
1567.1200, -84.429
1567.1400, -87.409
1567.1600,-210.000
1567.1800,-210.000
1567.2000, -87.423
1567.2200, -82.483
1567.2400,-210.000
1567.2600, -83.227
1567.2800, -87.551
1567.3000,-210.000
1567.3200, -95.048
1567.3400, -82.578
1567.3600,-210.000
1567.3800, -82.261
1567.4000, -83.742
1567.4200, -96.311
1567.4400, -85.063
1567.4600,-210.000
1567.4800, -87.152
1567.5000,-210.000
1567.5200, -82.433
1567.5400,-210.000
1567.5600,-108.480
1567.5800,-210.000
1567.6000, -84.253
1567.6200, -84.187
1567.6400, -85.152
1567.6600,-101.738
1567.6800, -87.121
1567.7000,-210.000
1567.7200, -88.342
1567.7400, -85.358
1567.7600,-210.000
1567.7800,-210.000
1567.8000, -82.249
1567.8200, -83.838
1567.8400, -88.906
1567.8600,-210.000
1567.8800,-210.000
1567.9000, -92.886
1567.9200, -88.441
1567.9400,-210.000
1567.9600, -84.128
1567.9800,-210.000
1568.0000, -82.440
1568.0200,-210.000
1568.0400, -85.062
1568.0600, -83.691
1568.0800,-210.000
1568.1000,-210.000
1568.1200, -81.428
1568.1400, -84.602
1568.1600,-210.000
1568.1800, -84.199
1568.2000,-210.000
1568.2200, -87.508
1568.2400, -89.198
1568.2600, -89.762
1568.2800, -83.504
1568.3000,-210.000
1568.3200, -86.310
1568.3400, -85.049
1568.3600,-210.000
1568.3800,-210.000
1568.4000, -80.859
1568.4200, -97.550
1568.4400, -84.260
1568.4600,-210.000
1568.4800, -89.640
1568.5000, -80.946
1568.5200,-210.000
1568.5400,-210.000
1568.5600, -82.781
1568.5800,-210.000
1568.6000, -82.126
1568.6200, -84.594
1568.6400, -85.957
1568.6600, -93.553
1568.6800,-210.000
1568.7000,-210.000
1568.7200,-210.000
1568.7400, -91.574
1568.7600,-210.000
1568.7800, -91.994
1568.8000, -87.824
1568.8200, -88.387
1568.8400,-210.000
1568.8600, -81.235
1568.8800,-210.000
1568.9000, -85.476
1568.9200, -93.027
1568.9400, -87.322
1568.9600,-210.000
1568.9800, -82.018
1569.0000, -86.158
1569.0200,-210.000
1569.0400, -87.407
1569.0600,-210.000
1569.0800,-210.000
1569.1000, -85.263
1569.1200, -89.486
1569.1400, -93.079
1569.1600, -89.172
1569.1800, -86.345
1569.2000, -89.926
1569.2200,-210.000
1569.2400, -84.112
1569.2600, -94.254
1569.2800, -83.307
1569.3000,-210.000
1569.3200, -89.784
1569.3400, -85.228
1569.3600,-210.000
1569.3800, -85.636
1569.4000,-210.000
1569.4200, -85.058
1569.4400,-210.000
1569.4600, -84.510
1569.4800, -84.017
1569.5000, -86.226
1569.5200, -91.155
1569.5400,-210.000
1569.5600, -90.462
1569.5800, -84.282
1569.6000,-210.000
1569.6200,-101.119
1569.6400, -82.362
1569.6600, -89.693
1569.6800, -87.764
1569.7000,-210.000
1569.7200,-210.000
1569.7400, -83.331
1569.7600,-210.000
1569.7800,-210.000
1569.8000, -81.017
1569.8200,-210.000
1569.8400, -82.686
1569.8600, -87.682
1569.8800, -85.665
1569.9000, -91.373
1569.9200,-210.000
1569.9400, -82.077
1569.9600,-210.000
1569.9800, -84.610
1570.0000,-210.000
1570.0200, -82.962
1570.0400, -87.935
1570.0600,-210.000
1570.0800, -87.883
1570.1000, -88.445
1570.1200,-210.000
1570.1400, -82.908
1570.1600, -89.061
1570.1800,-210.000
1570.2000, -83.034
1570.2200, -85.092
1570.2400,-210.000
1570.2600, -86.636
1570.2800,-210.000
1570.3000, -88.157
1570.3200, -82.674
1570.3400, -86.599
1570.3600,-210.000
1570.3800,-210.000
1570.4000, -84.300
1570.4200, -88.279
1570.4400,-210.000
1570.4600, -85.718
1570.4800, -84.450
1570.5000, -83.878
1570.5200,-210.000
1570.5400,-210.000
1570.5600, -85.927
1570.5800,-210.000
1570.6000,-210.000
1570.6200,-210.000
1570.6400,-210.000
1570.6600, -83.399
1570.6800, -87.588
1570.7000,-210.000
1570.7200, -87.082
1570.7400, -83.634
1570.7600,-210.000
1570.7800, -80.780
1570.8000,-100.191
1570.8200, -84.076
1570.8400, -88.261
1570.8600,-210.000
1570.8800, -91.256
1570.9000, -87.295
1570.9200,-210.000
1570.9400, -85.460
1570.9600,-210.000
1570.9800, -88.843
1571.0000, -86.700
1571.0200, -84.096
1571.0400,-210.000
1571.0600,-210.000
1571.0800, -79.856
1571.1000,-210.000
1571.1200, -83.075
1571.1400,-210.000
1571.1600, -85.514
1571.1800, -89.589
1571.2000, -84.629
1571.2200,-210.000
1571.2400, -81.920
1571.2600,-210.000
1571.2800, -85.866
1571.3000, -84.869
1571.3200,-210.000
1571.3400,-210.000
1571.3600, -80.018
1571.3800, -85.305
1571.4000, -87.462
1571.4200,-210.000
1571.4400,-210.000
1571.4600, -85.161
1571.4800,-210.000
1571.5000, -84.378
1571.5200,-210.000
1571.5400, -87.216
1571.5600, -82.795
1571.5800,-103.044
1571.6000,-210.000
1571.6200, -89.749
1571.6400, -87.336
1571.6600,-210.000
1571.6800,-210.000
1571.7000,-210.000
1571.7200, -85.236
1571.7400,-210.000
1571.7600, -82.665
1571.7800, -86.493
1571.8000, -87.413
1571.8200, -87.014
1571.8400,-210.000
1571.8600, -85.588
1571.8800,-210.000
1571.9000,-210.000
1571.9200, -84.598
1571.9400, -87.679
1571.9600, -89.929
1571.9800, -89.979
1572.0000, -86.239
1572.0200, -89.128
1572.0400, -91.762
1572.0600, -86.622
1572.0800,-210.000
1572.1000, -83.638
1572.1200, -88.620
1572.1400,-210.000
1572.1600,-210.000
1572.1800, -87.984
1572.2000, -87.006
1572.2200,-210.000
1572.2400,-103.217
1572.2600, -92.174
1572.2800, -85.861
1572.3000, -86.242
1572.3200, -87.250
1572.3400, -85.319
1572.3600, -87.185
1572.3800, -84.842
1572.4000, -84.147
1572.4200,-210.000
1572.4400, -82.120
1572.4600, -82.291
1572.4800,-210.000
1572.5000, -80.845
1572.5200, -88.202
1572.5400, -85.821
1572.5600,-210.000
1572.5800,-210.000
1572.6000, -86.524
1572.6200, -89.890
1572.6400, -85.823
1572.6600, -84.971
1572.6800, -85.303
1572.7000, -87.378
1572.7200,-210.000
1572.7400,-210.000
1572.7600, -85.198
1572.7800, -83.945
1572.8000, -89.575
1572.8200, -95.768
1572.8400, -86.716
1572.8600,-101.744
1572.8800,-210.000
1572.9000, -81.936
1572.9200,-210.000
1572.9400, -87.258
1572.9600,-210.000
1572.9800, -87.857
1573.0000, -82.369
1573.0200,-210.000
1573.0400,-210.000
1573.0600, -81.370
1573.0800, -92.154
1573.1000,-210.000
1573.1200,-210.000
1573.1400, -92.779
1573.1600, -82.372
1573.1800, -93.726
1573.2000, -86.132
1573.2200, -84.082
1573.2400,-210.000
1573.2600, -84.060
1573.2800, -82.373
1573.3000, -93.236
1573.3200, -90.902
1573.3400, -94.762
1573.3600, -87.513
1573.3800,-210.000
1573.4000, -81.379
1573.4200,-210.000
1573.4400,-210.000
1573.4600, -84.181
1573.4800, -86.008
1573.5000, -86.743
1573.5200,-210.000
1573.5400,-210.000
1573.5600, -81.537
1573.5800, -88.978
1573.6000, -82.822
1573.6200,-210.000
1573.6400, -87.276
1573.6600, -92.436
1573.6800, -87.018
1573.7000, -83.220
1573.7200,-210.000
1573.7400, -81.450
1573.7600,-210.000
1573.7800,-210.000
1573.8000, -80.462
1573.8200, -89.640
1573.8400, -84.854
1573.8600,-210.000
1573.8800, -85.243
1573.9000, -82.168
1573.9200, -90.173
1573.9400,-210.000
1573.9600, -84.995
1573.9800, -83.954
1574.0000,-210.000
1574.0200, -85.645
1574.0400, -89.565
1574.0600, -87.907
1574.0800,-210.000
1574.1000, -86.190
1574.1200, -79.261
1574.1400,-210.000
1574.1600, -84.811
1574.1800, -85.122
1574.2000,-210.000
1574.2200, -80.988
1574.2400,-210.000
1574.2600, -86.366
1574.2800,-210.000
1574.3000, -84.115
1574.3200,-210.000
1574.3400, -83.828
1574.3600, -86.139
1574.3800, -85.851
1574.4000,-210.000
1574.4200, -81.992
1574.4400,-210.000
1574.4600,-210.000
1574.4800, -83.142
1574.5000, -82.320
1574.5200,-210.000
1574.5400, -89.952
1574.5600, -97.122
1574.5800, -85.457
1574.6000, -88.911
1574.6200,-210.000
1574.6400, -84.948
1574.6600,-210.000
1574.6800, -83.431
1574.7000, -87.696
1574.7200,-210.000
1574.7400, -91.064
1574.7600,-210.000
1574.7800,-210.000
1574.8000, -85.129
1574.8200,-210.000
1574.8400, -95.787
1574.8600, -95.789
1574.8800,-210.000
1574.9000, -85.351
1574.9200, -87.251
1574.9400, -91.143
1574.9600,-210.000
1574.9800, -83.605
1575.0000, -90.201
1575.0200, -89.019
1575.0400,-210.000
1575.0600, -96.585
1575.0800, -83.975
1575.1000, -82.245
1575.1200,-210.000
1575.1400, -86.170
1575.1600, -86.454
1575.1800, -87.877
1575.2000, -88.083
1575.2200,-210.000
1575.2400, -85.547
1575.2600,-210.000
1575.2800, -86.674
1575.3000,-210.000
1575.3200,-210.000
1575.3400, -83.591
1575.3600, -97.457
1575.3800, -86.580
1575.4000, -97.207
1575.4200,-210.000
1575.4400,-210.000
1575.4600, -80.859
1575.4800,-210.000
1575.5000, -86.612
1575.5200,-210.000
1575.5400,-210.000
1575.5600,-210.000
1575.5800, -79.878
1575.6000, -84.228
1575.6200, -84.877
1575.6400,-107.716
1575.6600,-210.000
1575.6800, -84.930
1575.7000, -88.292
1575.7200,-210.000
1575.7400, -81.655
1575.7600,-210.000
1575.7800, -82.997
1575.8000, -85.865
1575.8200, -83.194
1575.8400, -87.685
1575.8600, -87.361
1575.8800, -88.863
1575.9000, -90.692
1575.9200, -94.833
1575.9400, -87.676
1575.9600,-210.000
1575.9800,-210.000
1576.0000, -89.274
1576.0200,-210.000
1576.0400, -82.442
1576.0600,-210.000
1576.0800, -82.318
1576.1000, -85.031
1576.1200, -85.782
1576.1400, -92.336
1576.1600, -86.661
1576.1800,-210.000
1576.2000, -86.201
1576.2200, -84.903
1576.2400,-210.000
1576.2600,-210.000
1576.2800,-210.000
1576.3000, -89.486
1576.3200, -87.538
1576.3400, -92.501
1576.3600, -83.452
1576.3800, -84.201
1576.4000,-210.000
1576.4200,-210.000
1576.4400, -84.442
1576.4600, -84.111
1576.4800,-210.000
1576.5000,-210.000
1576.5200,-210.000
1576.5400, -87.643
1576.5600, -81.483
1576.5800,-210.000
1576.6000,-210.000
1576.6200,-210.000
1576.6400, -85.670
1576.6600, -84.443
1576.6800, -82.270
1576.7000,-210.000
1576.7200, -85.353
1576.7400, -82.634
1576.7600, -91.607
1576.7800,-210.000
1576.8000, -81.775
1576.8200,-210.000
1576.8400,-210.000
1576.8600, -83.266
1576.8800,-210.000
1576.9000, -85.525
1576.9200, -83.027
1576.9400, -98.415
1576.9600, -87.914
1576.9800, -88.505
1577.0000, -84.831
1577.0200,-210.000
1577.0400,-210.000
1577.0600, -82.733
1577.0800, -84.592
1577.1000, -79.874
1577.1200, -86.306
1577.1400, -86.712
1577.1600,-210.000
1577.1800, -84.050
1577.2000,-210.000
1577.2200,-210.000
1577.2400,-210.000
1577.2600, -87.392
1577.2800, -83.815
1577.3000,-210.000
1577.3200, -85.517
1577.3400, -94.200
1577.3600, -85.370
1577.3800,-210.000
1577.4000, -86.711
1577.4200, -85.638
1577.4400, -86.759
1577.4600, -82.822
1577.4800,-210.000
1577.5000,-210.000
1577.5200, -84.606
1577.5400,-210.000
1577.5600,-210.000
1577.5800, -87.784
1577.6000,-210.000
1577.6200, -82.177
1577.6400, -86.698
1577.6600, -83.095
1577.6800,-210.000
1577.7000,-210.000
1577.7200, -87.037
1577.7400, -89.605
1577.7600,-210.000
1577.7800, -83.943
1577.8000,-210.000
1577.8200, -81.704
1577.8400,-210.000
1577.8600,-210.000
1577.8800, -81.868
1577.9000, -92.542
1577.9200,-210.000
1577.9400, -87.223
1577.9600, -82.938
1577.9800,-210.000
1578.0000,-210.000
1578.0200, -80.399
1578.0400,-210.000
1578.0600,-210.000
1578.0800,-210.000
1578.1000, -84.518
1578.1200, -85.267
1578.1400,-210.000
1578.1600, -82.695
1578.1800, -86.130
1578.2000,-210.000
1578.2200, -90.195
1578.2400, -88.579
1578.2600,-210.000
1578.2800, -80.997
1578.3000, -86.242
1578.3200,-210.000
1578.3400, -82.080
1578.3600,-210.000
1578.3800,-210.000
1578.4000,-210.000
1578.4200, -81.329
1578.4400,-210.000
1578.4600, -86.692
1578.4800,-210.000
1578.5000, -82.566
1578.5200,-210.000
1578.5400,-210.000
1578.5600, -94.302
1578.5800, -82.075
1578.6000, -97.015
1578.6200,-210.000
1578.6400, -87.463
1578.6600,-210.000
1578.6800, -80.809
1578.7000,-210.000
1578.7200, -91.021
1578.7400,-210.000
1578.7600, -85.252
1578.7800, -84.206
1578.8000,-210.000
1578.8200, -81.853
1578.8400,-210.000
1578.8600, -84.257
1578.8800, -89.092
1578.9000,-210.000
1578.9200,-210.000
1578.9400, -80.694
1578.9600,-210.000
1578.9800, -83.872
1579.0000,-210.000
1579.0200, -92.255
1579.0400,-210.000
1579.0600, -87.022
1579.0800, -87.715
1579.1000, -83.480
1579.1200, -86.979
1579.1400, -88.209
1579.1600, -87.462
1579.1800, -83.503
1579.2000, -84.898
1579.2200,-210.000
1579.2400, -82.978
1579.2600,-210.000
1579.2800, -83.347
1579.3000,-210.000
1579.3200,-210.000
1579.3400, -86.720
1579.3600,-210.000
1579.3800, -89.225
1579.4000, -84.857
1579.4200,-210.000
1579.4400, -82.523
1579.4600, -87.971
1579.4800,-210.000
1579.5000,-210.000
1579.5200,-210.000
1579.5400, -87.122
1579.5600,-210.000
1579.5800, -87.953
1579.6000, -86.075
1579.6200, -88.984
1579.6400, -85.577
1579.6600, -87.523
1579.6800,-210.000
1579.7000, -88.031
1579.7200, -84.271
1579.7400,-210.000
1579.7600, -90.684
1579.7800, -84.203
1579.8000,-210.000
1579.8200, -82.998
1579.8400,-210.000
1579.8600, -87.908
1579.8800, -86.759
1579.9000, -87.090
1579.9200, -89.458
1579.9400, -84.012
1579.9600,-210.000
1579.9800, -85.311
1580.0000, -83.159
1580.0200, -85.978
1580.0400, -84.071
1580.0600,-210.000
1580.0800, -82.304
1580.1000, -92.149
1580.1200,-210.000
1580.1400, -89.824
1580.1600,-210.000
1580.1800, -84.294
1580.2000, -88.966
1580.2200,-210.000
1580.2400, -87.069
1580.2600, -86.936
1580.2800, -93.044
1580.3000, -84.238
1580.3200, -84.208
1580.3400, -84.938
1580.3600, -84.938
1580.3800,-210.000
1580.4000, -81.397
1580.4200, -86.309
1580.4400, -86.491
1580.4600,-210.000
1580.4800, -83.449
1580.5000, -86.107
1580.5200,-210.000
1580.5400,-210.000
1580.5600,-210.000
1580.5800, -95.312
1580.6000, -92.839
1580.6200, -87.298
1580.6400, -85.456
1580.6600,-210.000
1580.6800, -78.529
1580.7000,-210.000
1580.7200,-210.000
1580.7400, -87.465
1580.7600,-210.000
1580.7800, -82.656
1580.8000, -86.115
1580.8200,-210.000
1580.8400, -80.765
1580.8600, -87.804
1580.8800,-210.000
1580.9000, -93.052
1580.9200,-210.000
1580.9400, -88.342
1580.9600, -80.549
1580.9800,-210.000
1581.0000, -81.162
1581.0200,-210.000
1581.0400, -85.426
1581.0600,-210.000
1581.0800,-210.000
1581.1000, -83.787
1581.1200, -84.751
1581.1400, -84.552
1581.1600,-210.000
1581.1800,-210.000
1581.2000,-210.000
1581.2200,-210.000
1581.2400, -89.571
1581.2600, -87.552
1581.2800, -82.465
1581.3000, -86.554
1581.3200,-210.000
1581.3400,-210.000
1581.3600,-210.000
1581.3800, -84.871
1581.4000, -86.270
1581.4200,-210.000
1581.4400, -78.705
1581.4600,-210.000
1581.4800,-210.000
1581.5000, -84.752
1581.5200, -87.662
1581.5400, -88.256
1581.5600, -94.981
1581.5800, -92.713
1581.6000, -85.237
1581.6200, -86.205
1581.6400, -80.972
1581.6600, -84.752
1581.6800, -90.552
1581.7000, -82.542
1581.7200,-210.000
1581.7400,-210.000
1581.7600, -83.904
1581.7800, -83.276
1581.8000,-210.000
1581.8200,-210.000
1581.8400,-210.000
1581.8600, -85.221
1581.8800, -88.442
1581.9000,-210.000
1581.9200, -83.476
1581.9400, -81.481
1581.9600,-210.000
1581.9800, -90.066
1582.0000, -92.457
1582.0200, -84.760
1582.0400, -83.471
1582.0600, -88.706
1582.0800, -86.590
1582.1000,-210.000
1582.1200, -90.814
1582.1400, -83.706
1582.1600, -85.405
1582.1800,-210.000
1582.2000, -82.437
1582.2200,-210.000
1582.2400, -90.420
1582.2600, -82.638
1582.2800, -90.235
1582.3000,-210.000
1582.3200, -92.476
1582.3400, -87.137
1582.3600, -87.994
1582.3800, -83.518
1582.4000, -85.076
1582.4200,-210.000
1582.4400,-210.000
1582.4600, -82.504
1582.4800,-210.000
1582.5000, -81.666
1582.5200,-210.000
1582.5400, -85.079
1582.5600, -84.113
1582.5800, -89.908
1582.6000,-210.000
1582.6200, -80.949
1582.6400, -90.279
1582.6600, -82.800
1582.6800,-210.000
1582.7000, -83.352
1582.7200, -89.450
1582.7400,-101.553
1582.7600, -94.912
1582.7800, -87.910
1582.8000, -88.481
1582.8200,-210.000
1582.8400, -83.925
1582.8600, -85.063
1582.8800, -93.053
1582.9000,-210.000
1582.9200, -91.659
1582.9400, -82.437
1582.9600, -96.993
1582.9800,-210.000
1583.0000, -90.041
1583.0200, -83.743
1583.0400, -89.406
1583.0600, -95.010
1583.0800, -88.129
1583.1000, -85.035
1583.1200,-210.000
1583.1400,-210.000
1583.1600, -83.126
1583.1800, -82.859
1583.2000, -96.271
1583.2200, -85.357
1583.2400, -85.793
1583.2600, -88.604
1583.2800, -94.103
1583.3000, -83.192
1583.3200, -87.045
1583.3400, -87.616
1583.3600, -85.976
1583.3800, -84.273
1583.4000, -84.428
1583.4200, -89.278
1583.4400, -88.713
1583.4600,-210.000
1583.4800,-210.000
1583.5000,-210.000
1583.5200, -83.948
1583.5400,-210.000
1583.5600, -85.997
1583.5800, -84.039
1583.6000,-210.000
1583.6200, -81.470
1583.6400, -86.566
1583.6600, -85.203
1583.6800, -81.884
1583.7000, -85.776
1583.7200,-210.000
1583.7400, -84.675
1583.7600, -87.024
1583.7800, -86.589
1583.8000,-210.000
1583.8200,-210.000
1583.8400, -84.433
1583.8600,-210.000
1583.8800, -86.300
1583.9000, -83.487
1583.9200,-210.000
1583.9400, -84.222
1583.9600,-210.000
1583.9800,-210.000
1584.0000, -83.676
1584.0200,-210.000
1584.0400, -88.215
1584.0600, -86.211
1584.0800,-210.000
1584.1000,-210.000
1584.1200, -89.297
1584.1400,-210.000
1584.1600,-210.000
1584.1800,-210.000
1584.2000, -82.116
1584.2200,-210.000
1584.2400,-210.000
1584.2600, -86.022
1584.2800, -88.873
1584.3000, -87.094
1584.3200, -92.381
1584.3400, -96.944
1584.3600, -99.194
1584.3800, -88.013
1584.4000,-210.000
1584.4200,-210.000
1584.4400, -81.995
1584.4600,-210.000
1584.4800, -88.438
1584.5000,-210.000
1584.5200, -82.779
1584.5400,-210.000
1584.5600,-210.000
1584.5800,-210.000
1584.6000, -86.729
1584.6200, -86.412
1584.6400,-210.000
1584.6600, -83.986
1584.6800, -92.514
1584.7000,-210.000
1584.7200, -83.562
1584.7400,-210.000
1584.7600, -87.796
1584.7800,-210.000
1584.8000, -85.475
1584.8200, -86.889
1584.8400,-210.000
1584.8600,-210.000
1584.8800, -85.535
1584.9000, -87.395
1584.9200, -87.724
1584.9400, -81.004
1584.9600,-210.000
1584.9800, -83.923
1585.0000,-210.000
1585.0200, -97.256
1585.0400, -84.050
1585.0600, -88.431
1585.0800,-210.000
1585.1000, -83.306
1585.1200, -88.671
1585.1400, -85.122
1585.1600, -83.002
1585.1800,-210.000
1585.2000,-100.681
1585.2200,-210.000
1585.2400,-210.000
1585.2600,-210.000
1585.2800, -85.516
1585.3000, -81.382
1585.3200,-210.000
1585.3400, -87.722
1585.3600, -88.149
1585.3800, -94.435
1585.4000, -94.985
1585.4200, -85.542
1585.4400,-210.000
1585.4600,-210.000
1585.4800, -81.493
1585.5000, -83.295
1585.5200,-210.000
1585.5400,-210.000
1585.5600, -83.330
1585.5800,-210.000
1585.6000,-210.000
1585.6200, -83.567
1585.6400, -93.297
1585.6600,-210.000
1585.6800, -81.203
1585.7000,-210.000
1585.7200, -85.645
1585.7400, -85.614
1585.7600,-210.000
1585.7800,-210.000
1585.8000, -81.122
1585.8200, -91.724
1585.8400,-210.000
1585.8600, -84.738
1585.8800,-100.652
1585.9000, -87.642
1585.9200, -84.153
1585.9400, -88.873
1585.9600, -83.561
1585.9800,-210.000
1586.0000,-210.000
1586.0200,-210.000
1586.0400, -92.960
1586.0600, -82.471
1586.0800, -85.840
1586.1000, -82.959
1586.1200,-210.000
1586.1400, -85.033
1586.1600, -84.049
1586.1800, -87.140
1586.2000,-210.000
1586.2200, -87.299
1586.2400, -92.332
1586.2600, -87.514
1586.2800, -83.080
1586.3000, -84.149
1586.3200, -86.187
1586.3400, -91.564
1586.3600, -86.630
1586.3800, -91.447
1586.4000,-210.000
1586.4200, -84.776
1586.4400, -84.119
1586.4600,-210.000
1586.4800, -88.214
1586.5000,-210.000
1586.5200, -84.025
1586.5400, -86.601
1586.5600, -82.592
1586.5800,-210.000
1586.6000, -84.411
1586.6200,-210.000
1586.6400,-210.000
1586.6600,-210.000
1586.6800, -82.298
1586.7000, -92.370
1586.7200,-210.000
1586.7400, -84.773
1586.7600, -84.565
1586.7800,-210.000
1586.8000, -86.735
1586.8200, -88.508
1586.8400, -89.074
1586.8600, -85.771
1586.8800,-210.000
1586.9000,-210.000
1586.9200, -86.066
1586.9400, -83.744
1586.9600,-210.000
1586.9800, -90.192
1587.0000, -88.346
1587.0200, -84.867
1587.0400,-210.000
1587.0600, -87.662
1587.0800,-210.000
1587.1000, -87.022
1587.1200, -92.608
1587.1400, -85.100
1587.1600, -90.565
1587.1800, -94.037
1587.2000, -86.942
1587.2200, -84.094
1587.2400,-210.000
1587.2600, -91.947
1587.2800, -85.038
1587.3000, -84.543
1587.3200, -81.594
1587.3400,-210.000
1587.3600, -80.703
1587.3800,-210.000
1587.4000, -81.959
1587.4200,-210.000
1587.4400,-210.000
1587.4600, -84.641
1587.4800,-210.000
1587.5000, -85.654
1587.5200, -83.839
1587.5400, -93.726
1587.5600, -88.100
1587.5800, -88.348
1587.6000, -92.833
1587.6200, -90.927
1587.6400, -89.699
1587.6600, -84.289
1587.6800,-210.000
1587.7000,-210.000
1587.7200, -84.717
1587.7400,-210.000
1587.7600, -86.416
1587.7800,-210.000
1587.8000, -82.656
1587.8200, -84.507
1587.8400,-210.000
1587.8600, -86.714
1587.8800,-210.000
1587.9000, -85.140
1587.9200, -83.598
1587.9400, -93.719
1587.9600, -83.152
1587.9800, -86.518
1588.0000, -86.436
1588.0200, -82.018
1588.0400,-210.000
1588.0600, -88.955
1588.0800,-210.000
1588.1000, -90.374
1588.1200, -88.654
1588.1400, -84.451
1588.1600, -95.289
1588.1800,-210.000
1588.2000, -84.019
1588.2200,-210.000
1588.2400, -84.695
1588.2600, -88.250
1588.2800,-210.000
1588.3000, -83.235
1588.3200, -89.559
1588.3400,-210.000
1588.3600,-210.000
1588.3800, -81.077
1588.4000, -84.425
1588.4200, -84.485
1588.4400,-210.000
1588.4600,-210.000
1588.4800, -81.241
1588.5000, -88.398
1588.5200,-210.000
1588.5400, -81.771
1588.5600,-210.000
1588.5800, -82.663
1588.6000, -89.126
1588.6200, -93.789
1588.6400,-210.000
1588.6600, -80.260
1588.6800, -84.927
1588.7000, -90.185
1588.7200, -83.190
1588.7400,-210.000
1588.7600,-210.000
1588.7800, -82.571
1588.8000,-210.000
1588.8200,-210.000
1588.8400, -89.137
1588.8600, -91.361
1588.8800,-210.000
1588.9000, -81.460
1588.9200,-210.000
1588.9400, -86.481
1588.9600, -92.170
1588.9800, -85.454
1589.0000,-210.000
1589.0200, -85.322
1589.0400, -88.582
1589.0600,-210.000
1589.0800, -84.027
1589.1000,-210.000
1589.1200, -97.044
1589.1400, -80.631
1589.1600, -88.424
1589.1800, -84.226
1589.2000,-210.000
1589.2200,-210.000
1589.2400, -95.743
1589.2600, -86.247
1589.2800, -80.768
1589.3000,-210.000
1589.3200, -81.570
1589.3400, -91.278
1589.3600, -98.226
1589.3800, -88.194
1589.4000, -82.659
1589.4200,-210.000
1589.4400,-210.000
1589.4600,-210.000
1589.4800, -82.562
1589.5000, -83.539
1589.5200,-210.000
1589.5400, -85.638
1589.5600, -90.255
1589.5800, -79.827
1589.6000, -90.770
1589.6200, -87.840
1589.6400, -91.541
1589.6600, -84.238
1589.6800,-210.000
1589.7000,-210.000
1589.7200, -92.662
1589.7400, -88.422
1589.7600,-210.000
1589.7800, -85.253
1589.8000,-210.000
1589.8200,-210.000
1589.8400,-210.000
1589.8600, -93.424
1589.8800, -82.608
1589.9000, -88.273
1589.9200,-210.000
1589.9400,-210.000
1589.9600, -83.255
1589.9800,-210.000
1590.0000,-210.000
1590.0200, -84.117
1590.0400, -84.255
1590.0600,-210.000
1590.0800, -99.710
1590.1000,-210.000
1590.1200,-210.000
1590.1400, -88.561
1590.1600, -85.662
1590.1800, -85.028
1590.2000, -86.320
1590.2200,-210.000
1590.2400, -91.176
1590.2600, -86.428
1590.2800,-210.000
1590.3000,-210.000
1590.3200, -81.154
1590.3400,-210.000
1590.3600, -91.219
1590.3800,-210.000
1590.4000, -82.195
1590.4200,-210.000
1590.4400, -97.319
1590.4600, -85.020
1590.4800, -89.952
1590.5000,-210.000
1590.5200, -84.073
1590.5400, -90.071
1590.5600, -89.821
1590.5800, -85.318
1590.6000, -91.650
1590.6200, -90.464
1590.6400, -85.434
1590.6600, -91.439
1590.6800,-210.000
1590.7000,-210.000
1590.7200, -85.674
1590.7400, -84.504
1590.7600, -94.672
1590.7800,-210.000
1590.8000, -87.293
1590.8200,-210.000
1590.8400,-210.000
1590.8600, -83.575
1590.8800, -87.473
1590.9000, -89.038
1590.9200,-210.000
1590.9400, -82.615
1590.9600,-210.000
1590.9800, -81.656
1591.0000, -86.879
1591.0200, -87.012
1591.0400,-210.000
1591.0600, -93.978
1591.0800, -91.688
1591.1000, -83.825
1591.1200,-210.000
1591.1400, -84.700
1591.1600,-210.000
1591.1800, -81.599
1591.2000,-210.000
1591.2200, -90.919
1591.2400,-210.000
1591.2600, -87.682
1591.2800, -82.463
1591.3000,-210.000
1591.3200,-210.000
1591.3400,-105.563
1591.3600, -89.657
1591.3800, -82.358
1591.4000, -91.309
1591.4200, -88.906
1591.4400,-210.000
1591.4600, -84.768
1591.4800,-210.000
1591.5000,-210.000
1591.5200, -94.205
1591.5400, -88.897
1591.5600, -85.353
1591.5800, -89.224
1591.6000,-210.000
1591.6200, -82.622
1591.6400,-210.000
1591.6600, -82.552
1591.6800, -84.038
1591.7000,-210.000
1591.7200, -89.036
1591.7400, -88.386
1591.7600, -88.406
1591.7800, -85.474
1591.8000,-210.000
1591.8200,-210.000
1591.8400,-210.000
1591.8600, -85.446
1591.8800, -91.366
1591.9000, -83.694
1591.9200,-210.000
1591.9400,-210.000
1591.9600, -86.317
1591.9800, -94.031
1592.0000, -82.729
1592.0200,-210.000
1592.0400, -83.073
1592.0600,-210.000
1592.0800,-210.000
1592.1000,-210.000
1592.1200, -86.374
1592.1400, -85.966
1592.1600, -86.239
1592.1800,-210.000
1592.2000, -95.299
1592.2200,-210.000
1592.2400, -86.358
1592.2600, -85.201
1592.2800, -85.207
1592.3000,-210.000
1592.3200,-210.000
1592.3400, -82.582
1592.3600,-210.000
1592.3800, -92.797
1592.4000, -98.377
1592.4200, -82.396
1592.4400, -85.959
1592.4600, -82.553
1592.4800,-210.000
1592.5000, -86.155
1592.5200, -89.338
1592.5400, -84.642
1592.5600, -88.961
1592.5800, -88.449
1592.6000, -83.920
1592.6200,-210.000
1592.6400,-210.000
1592.6600, -86.361
1592.6800,-210.000
1592.7000, -83.280
1592.7200, -85.358
1592.7400,-210.000
1592.7600, -89.929
1592.7800, -85.165
1592.8000, -84.407
1592.8200, -85.897
1592.8400,-210.000
1592.8600, -90.001
1592.8800, -87.282
1592.9000,-210.000
1592.9200, -90.563
1592.9400,-210.000
1592.9600, -83.745
1592.9800,-210.000
1593.0000, -95.933
1593.0200,-210.000
1593.0400, -82.578
1593.0600,-210.000
1593.0800,-210.000
1593.1000,-210.000
1593.1200,-210.000
1593.1400, -86.033
1593.1600, -91.686
1593.1800, -81.656
1593.2000,-210.000
1593.2200, -92.528
1593.2400, -84.748
1593.2600, -95.362
1593.2800,-210.000
1593.3000, -85.385
1593.3200,-210.000
1593.3400, -89.566
1593.3600, -81.088
1593.3800,-210.000
1593.4000, -86.935
1593.4200, -86.997
1593.4400, -86.298
1593.4600, -86.945
1593.4800,-210.000
1593.5000,-210.000
1593.5200, -84.162
1593.5400,-210.000
1593.5600, -86.766
1593.5800, -86.216
1593.6000, -86.567
1593.6200,-210.000
1593.6400, -85.020
1593.6600, -82.510
1593.6800, -87.578
1593.7000,-210.000
1593.7200, -87.935
1593.7400, -86.079
1593.7600, -87.259
1593.7800,-210.000
1593.8000, -83.133
1593.8200, -85.358
1593.8400, -89.311
1593.8600,-210.000
1593.8800, -87.802
1593.9000, -90.559
1593.9200,-210.000
1593.9400, -91.198
1593.9600, -84.766
1593.9800,-210.000
1594.0000, -90.357
1594.0200, -81.788
1594.0400,-210.000
1594.0600, -91.906
1594.0800,-210.000
1594.1000, -89.091
1594.1200, -85.890
1594.1400,-210.000
1594.1600, -87.473
1594.1800, -83.392
1594.2000, -85.348
1594.2200, -86.283
1594.2400, -89.677
1594.2600,-210.000
1594.2800, -83.159
1594.3000, -84.254
1594.3200,-210.000
1594.3400, -80.998
1594.3600, -83.213
1594.3800, -83.699
1594.4000,-210.000
1594.4200,-210.000
1594.4400, -84.699
1594.4600, -81.696
1594.4800,-210.000
1594.5000, -85.898
1594.5200, -81.696
1594.5400,-210.000
1594.5600,-210.000
1594.5800,-210.000
1594.6000, -86.149
1594.6200, -88.049
1594.6400, -81.234
1594.6600, -85.234
1594.6800,-210.000
1594.7000,-210.000
1594.7200,-210.000
1594.7400, -87.508
1594.7600, -97.606
1594.7800, -94.279
1594.8000, -85.439
1594.8200, -82.569
1594.8400, -87.250
1594.8600, -86.040
1594.8800,-210.000
1594.9000, -83.432
1594.9200, -82.067
1594.9400,-210.000
1594.9600, -81.683
1594.9800,-210.000
1595.0000, -84.701
1595.0200, -86.080
1595.0400, -94.206
1595.0600, -93.580
1595.0800, -91.229
1595.1000, -92.077
1595.1200, -86.909
1595.1400, -86.875
1595.1600, -90.107
1595.1800, -89.668
1595.2000,-210.000
1595.2200, -83.923
1595.2400,-112.632
1595.2600,-210.000
1595.2800,-210.000
1595.3000, -86.622
1595.3200, -87.069
1595.3400,-210.000
1595.3600, -86.296
1595.3800, -84.033
1595.4000, -96.213
1595.4200,-210.000
1595.4400, -82.357
1595.4600,-210.000
1595.4800, -92.963
1595.5000, -88.013
1595.5200,-210.000
1595.5400, -83.377
1595.5600,-210.000
1595.5800, -91.175
1595.6000, -85.311
1595.6200, -90.190
1595.6400,-210.000
1595.6600,-210.000
1595.6800,-210.000
1595.7000, -82.823
1595.7200,-210.000
1595.7400,-210.000
1595.7600,-210.000
1595.7800, -82.577
1595.8000, -84.932
1595.8200,-210.000
1595.8400, -84.948
1595.8600, -84.740
1595.8800, -85.074
1595.9000,-210.000
1595.9200, -80.639
1595.9400, -85.057
1595.9600, -83.815
1595.9800, -84.652
1596.0000,-210.000
1596.0200, -92.179
1596.0400, -85.802
1596.0600,-210.000
1596.0800, -84.195
1596.1000,-210.000
1596.1200, -87.814
1596.1400, -86.057
1596.1600,-210.000
1596.1800,-210.000
1596.2000, -86.740
1596.2200,-210.000
1596.2400, -80.788
1596.2600,-210.000
1596.2800, -91.622
1596.3000,-210.000
1596.3200,-210.000
1596.3400,-210.000
1596.3600, -82.265
1596.3800, -91.293
1596.4000, -82.427
1596.4200,-210.000
1596.4400, -90.591
1596.4600,-210.000
1596.4800, -99.286
1596.5000,-210.000
1596.5200, -81.843
1596.5400,-210.000
1596.5600, -85.028
1596.5800, -89.928
1596.6000, -86.916
1596.6200, -83.529
1596.6400, -82.761
1596.6600, -90.438
1596.6800,-210.000
1596.7000, -88.641
1596.7200, -88.094
1596.7400,-210.000
1596.7600, -82.602
1596.7800,-210.000
1596.8000, -80.759
1596.8200, -87.819
1596.8400,-210.000
1596.8600, -88.349
1596.8800, -88.518
1596.9000, -81.595
1596.9200,-210.000
1596.9400, -86.614
1596.9600,-210.000
1596.9800, -91.302
1597.0000, -82.300
1597.0200, -88.646
1597.0400, -82.894
1597.0600,-210.000
1597.0800,-210.000
1597.1000, -84.018
1597.1200,-107.822
1597.1400,-210.000
1597.1600,-210.000
1597.1800, -89.553
1597.2000,-210.000
1597.2200, -79.844
1597.2400,-210.000
1597.2600, -84.437
1597.2800,-210.000
1597.3000, -84.224
1597.3200,-210.000
1597.3400, -81.956
1597.3600,-210.000
1597.3800,-210.000
1597.4000,-210.000
1597.4200, -86.322
1597.4400, -85.172
1597.4600,-210.000
1597.4800,-210.000
1597.5000, -84.532
1597.5200, -88.320
1597.5400, -88.025
1597.5600, -86.914
1597.5800, -83.943
1597.6000,-210.000
1597.6200, -83.851
1597.6400, -83.067
1597.6600,-210.000
1597.6800,-210.000
1597.7000,-210.000
1597.7200, -86.569
1597.7400, -90.757
1597.7600, -86.006
1597.7800, -82.924
1597.8000, -81.740
1597.8200, -95.380
1597.8400, -90.222
1597.8600,-210.000
1597.8800,-210.000
1597.9000, -84.291
1597.9200, -86.426
1597.9400, -84.971
1597.9600,-210.000
1597.9800, -84.132
1598.0000, -86.784
1598.0200,-210.000
1598.0400, -81.537
1598.0600,-210.000
1598.0800, -83.187
1598.1000, -90.631
1598.1200, -83.924
1598.1400, -89.157
1598.1600, -84.793
1598.1800, -86.950
1598.2000,-210.000
1598.2200,-103.561
1598.2400, -84.626
1598.2600, -84.856
1598.2800, -87.838
1598.3000,-210.000
1598.3200, -83.471
1598.3400, -95.628
1598.3600, -85.287
1598.3800, -88.657
1598.4000, -87.459
1598.4200,-210.000
1598.4400, -82.283
1598.4600, -95.213
1598.4800, -83.108
1598.5000,-210.000
1598.5200, -83.868
1598.5400,-210.000
1598.5600, -84.308
1598.5800,-210.000
1598.6000, -84.318
1598.6200, -84.034
1598.6400, -87.414
1598.6600,-210.000
1598.6800, -82.254
1598.7000, -89.393
1598.7200,-210.000
1598.7400, -83.293
1598.7600, -90.413
1598.7800, -93.566
1598.8000, -85.596
1598.8200, -85.761
1598.8400, -91.287
1598.8600,-210.000
1598.8800, -90.247
1598.9000,-210.000
1598.9200, -85.536
1598.9400, -91.737
1598.9600, -83.182
1598.9800, -87.490
1599.0000, -86.626
1599.0200,-113.757
1599.0400,-210.000
1599.0600, -84.847
1599.0800,-210.000
1599.1000, -88.023
1599.1200, -84.506
1599.1400,-210.000
1599.1600, -85.961
1599.1800,-210.000
1599.2000, -82.426
1599.2200,-210.000
1599.2400,-210.000
1599.2600, -82.824
1599.2800,-210.000
1599.3000, -85.444
1599.3200,-210.000
1599.3400, -83.132
1599.3600,-210.000
1599.3800, -86.452
1599.4000, -89.397
1599.4200, -88.191
1599.4400,-210.000
1599.4600, -80.913
1599.4800,-210.000
1599.5000,-210.000
1599.5200, -82.969
1599.5400, -83.991
1599.5600,-210.000
1599.5800,-210.000
1599.6000,-210.000
1599.6200,-210.000
1599.6400,-210.000
1599.6600, -85.026
1599.6800,-210.000
1599.7000, -81.442
1599.7200, -82.772
1599.7400,-210.000
1599.7600, -80.633
1599.7800,-210.000
1599.8000, -83.566
1599.8200,-210.000
1599.8400, -86.790
1599.8600,-210.000
1599.8800, -84.227
1599.9000, -92.829
1599.9200, -96.805
1599.9400, -84.979
1599.9600, -84.937
1599.9800, -92.177
1600.0000,-210.000
