70BCSV 	
// AQ6370B OPTICAL SPECTRUM ANALYZER //                 
25
"CTRWL",1550.000000
"SPAN", 100.000000
"START WL",1500.000000
"STOP WL",1600.000000
"WLFREQ", 0
"REFL",-26.7
"LSCL", 5.0
"RESLN",0.100
"AVG",   1
"SMPLAUTO",      0
"SMPL",       5001
"SMPLINTVL",0.0200
"HIGH1"
"MEAS"
"LSUNT",0
"NMSKH","OFF"
"RESCOR",0
"RESPARM", 9050
"FREQPARM", 9050






"[TRACE DATA]"
1500.0000, -87.227
1500.0200,-210.000
1500.0400, -89.865
1500.0600, -85.712
1500.0800,-210.000
1500.1000, -84.535
1500.1200, -80.877
1500.1400, -93.704
1500.1600, -90.883
1500.1800,-210.000
1500.2000,-210.000
1500.2200, -87.165
1500.2400, -83.873
1500.2600, -87.690
1500.2800, -96.346
1500.3000,-210.000
1500.3200, -80.344
1500.3400,-210.000
1500.3600,-210.000
1500.3800,-210.000
1500.4000,-210.000
1500.4200, -84.727
1500.4400, -87.491
1500.4600, -83.533
1500.4800,-210.000
1500.5000,-210.000
1500.5200, -87.315
1500.5400,-210.000
1500.5600, -85.239
1500.5800, -89.045
1500.6000, -90.887
1500.6200, -82.103
1500.6400,-210.000
1500.6600,-210.000
1500.6800, -94.199
1500.7000, -84.632
1500.7200,-210.000
1500.7400, -86.405
1500.7600, -87.306
1500.7800, -87.758
1500.8000,-210.000
1500.8200, -90.164
1500.8400, -84.184
1500.8600, -84.144
1500.8800, -85.848
1500.9000,-210.000
1500.9200, -89.899
1500.9400, -92.194
1500.9600, -92.810
1500.9800, -85.702
1501.0000, -88.539
1501.0200, -83.397
1501.0400,-210.000
1501.0600,-210.000
1501.0800, -86.642
1501.1000, -86.702
1501.1200, -84.677
1501.1400, -87.015
1501.1600,-210.000
1501.1800,-210.000
1501.2000,-210.000
1501.2200, -81.105
1501.2400, -81.875
1501.2600,-210.000
1501.2800, -99.066
1501.3000,-210.000
1501.3200,-100.915
1501.3400, -87.064
1501.3600,-210.000
1501.3800, -87.077
1501.4000,-210.000
1501.4200, -82.985
1501.4400,-210.000
1501.4600, -85.304
1501.4800, -86.377
1501.5000, -89.163
1501.5200, -85.450
1501.5400,-210.000
1501.5600, -89.386
1501.5800, -85.248
1501.6000, -84.393
1501.6200, -86.859
1501.6400, -87.516
1501.6600,-210.000
1501.6800, -84.375
1501.7000,-210.000
1501.7200, -92.544
1501.7400, -87.798
1501.7600, -84.201
1501.7800,-210.000
1501.8000, -91.948
1501.8200, -91.484
1501.8400, -86.813
1501.8600,-210.000
1501.8800, -94.871
1501.9000, -85.002
1501.9200,-210.000
1501.9400, -82.306
1501.9600,-210.000
1501.9800, -91.631
1502.0000, -86.798
1502.0200,-210.000
1502.0400,-210.000
1502.0600, -82.875
1502.0800,-210.000
1502.1000, -85.518
1502.1200, -84.875
1502.1400,-210.000
1502.1600, -93.194
1502.1800, -89.542
1502.2000, -85.101
1502.2200, -82.908
1502.2400, -89.968
1502.2600, -88.021
1502.2800,-210.000
1502.3000, -83.870
1502.3200,-210.000
1502.3400,-210.000
1502.3600, -83.324
1502.3800,-210.000
1502.4000, -93.325
1502.4200, -88.659
1502.4400, -81.647
1502.4600,-100.077
1502.4800, -97.231
1502.5000, -91.460
1502.5200,-210.000
1502.5400, -87.962
1502.5600,-210.000
1502.5800,-210.000
1502.6000, -97.748
1502.6200, -86.416
1502.6400, -96.167
1502.6600, -86.160
1502.6800,-106.602
1502.7000, -82.334
1502.7200,-210.000
1502.7400, -87.144
1502.7600, -85.439
1502.7800,-210.000
1502.8000, -84.237
1502.8200,-210.000
1502.8400, -85.347
1502.8600, -91.230
1502.8800, -84.463
1502.9000, -87.452
1502.9200, -87.556
1502.9400, -86.045
1502.9600, -88.511
1502.9800, -85.120
1503.0000, -85.588
1503.0200,-210.000
1503.0400,-100.024
1503.0600, -82.872
1503.0800,-210.000
1503.1000, -81.691
1503.1200,-210.000
1503.1400, -86.324
1503.1600, -85.462
1503.1800,-210.000
1503.2000, -88.146
1503.2200,-210.000
1503.2400,-210.000
1503.2600, -82.887
1503.2800, -85.083
1503.3000,-210.000
1503.3200, -90.104
1503.3400, -83.209
1503.3600, -91.958
1503.3800, -83.844
1503.4000,-210.000
1503.4200, -88.001
1503.4400, -85.705
1503.4600, -89.133
1503.4800,-210.000
1503.5000, -82.226
1503.5200,-210.000
1503.5400, -84.989
1503.5600, -86.413
1503.5800, -91.874
1503.6000, -85.436
1503.6200,-210.000
1503.6400, -84.206
1503.6600, -89.955
1503.6800,-210.000
1503.7000, -93.288
1503.7200,-210.000
1503.7400, -86.715
1503.7600, -87.692
1503.7800, -80.645
1503.8000,-210.000
1503.8200, -83.504
1503.8400,-210.000
1503.8600, -90.474
1503.8800, -86.141
1503.9000, -86.019
1503.9200, -84.765
1503.9400,-210.000
1503.9600, -84.080
1503.9800,-210.000
1504.0000, -83.898
1504.0200,-210.000
1504.0400, -84.124
1504.0600, -84.118
1504.0800,-210.000
1504.1000, -84.130
1504.1200, -94.611
1504.1400,-210.000
1504.1600,-210.000
1504.1800, -84.359
1504.2000, -85.773
1504.2200,-210.000
1504.2400,-210.000
1504.2600, -85.236
1504.2800, -84.155
1504.3000,-210.000
1504.3200, -85.302
1504.3400,-210.000
1504.3600, -90.361
1504.3800, -91.415
1504.4000,-210.000
1504.4200, -80.887
1504.4400,-210.000
1504.4600,-210.000
1504.4800, -87.522
1504.5000, -83.005
1504.5200, -89.935
1504.5400,-210.000
1504.5600,-210.000
1504.5800,-210.000
1504.6000, -83.702
1504.6200, -83.609
1504.6400,-210.000
1504.6600,-210.000
1504.6800, -84.081
1504.7000,-210.000
1504.7200, -87.787
1504.7400, -81.489
1504.7600, -87.220
1504.7800,-210.000
1504.8000, -85.650
1504.8200, -86.036
1504.8400, -91.323
1504.8600,-210.000
1504.8800, -90.661
1504.9000, -89.269
1504.9200, -84.593
1504.9400,-104.467
1504.9600,-210.000
1504.9800, -88.207
1505.0000, -85.578
1505.0200,-210.000
1505.0400, -87.103
1505.0600, -86.504
1505.0800, -85.762
1505.1000, -88.949
1505.1200, -86.223
1505.1400, -82.289
1505.1600, -93.410
1505.1800, -82.116
1505.2000, -85.560
1505.2200, -84.649
1505.2400,-210.000
1505.2600, -80.797
1505.2800,-210.000
1505.3000, -86.508
1505.3200, -85.452
1505.3400,-210.000
1505.3600, -94.109
1505.3800, -84.696
1505.4000,-210.000
1505.4200,-210.000
1505.4400, -84.821
1505.4600,-210.000
1505.4800, -81.886
1505.5000, -86.710
1505.5200, -85.858
1505.5400,-210.000
1505.5600, -81.979
1505.5800,-210.000
1505.6000, -85.431
1505.6200,-210.000
1505.6400,-210.000
1505.6600,-210.000
1505.6800,-210.000
1505.7000, -80.445
1505.7200, -99.893
1505.7400, -88.744
1505.7600,-210.000
1505.7800, -83.527
1505.8000, -88.592
1505.8200,-210.000
1505.8400, -82.609
1505.8600,-210.000
1505.8800, -85.633
1505.9000, -96.224
1505.9200, -84.481
1505.9400, -91.657
1505.9600, -87.232
1505.9800,-210.000
1506.0000, -87.218
1506.0200, -89.895
1506.0400, -83.067
1506.0600, -99.011
1506.0800, -91.950
1506.1000, -98.092
1506.1200, -87.319
1506.1400, -87.191
1506.1600, -85.060
1506.1800,-210.000
1506.2000, -90.730
1506.2200,-210.000
1506.2400, -80.769
1506.2600,-210.000
1506.2800,-210.000
1506.3000, -82.263
1506.3200, -86.189
1506.3400,-210.000
1506.3600, -83.727
1506.3800, -87.498
1506.4000, -85.698
1506.4200, -85.529
1506.4400, -84.945
1506.4600, -98.101
1506.4800,-210.000
1506.5000,-210.000
1506.5200, -87.511
1506.5400, -83.415
1506.5600,-210.000
1506.5800, -83.063
1506.6000,-210.000
1506.6200, -82.647
1506.6400,-210.000
1506.6600, -94.591
1506.6800, -83.480
1506.7000,-210.000
1506.7200, -88.204
1506.7400,-107.522
1506.7600,-210.000
1506.7800, -85.129
1506.8000, -86.724
1506.8200, -80.927
1506.8400,-210.000
1506.8600, -83.037
1506.8800, -89.424
1506.9000, -83.860
1506.9200, -87.193
1506.9400, -90.092
1506.9600, -95.676
1506.9800,-210.000
1507.0000, -82.672
1507.0200, -89.759
1507.0400,-210.000
1507.0600, -88.624
1507.0800, -87.070
1507.1000,-210.000
1507.1200,-210.000
1507.1400, -87.040
1507.1600,-210.000
1507.1800, -83.744
1507.2000,-210.000
1507.2200, -82.620
1507.2400, -83.049
1507.2600,-210.000
1507.2800, -87.616
1507.3000, -97.067
1507.3200, -85.123
1507.3400,-210.000
1507.3600, -87.329
1507.3800, -83.793
1507.4000, -90.701
1507.4200, -86.224
1507.4400,-210.000
1507.4600, -81.783
1507.4800,-210.000
1507.5000, -89.554
1507.5200, -88.934
1507.5400, -84.179
1507.5600, -99.666
1507.5800, -82.150
1507.6000,-210.000
1507.6200,-210.000
1507.6400,-210.000
1507.6600,-210.000
1507.6800, -86.133
1507.7000,-210.000
1507.7200, -81.874
1507.7400, -91.398
1507.7600, -83.871
1507.7800,-210.000
1507.8000, -83.227
1507.8200,-210.000
1507.8400,-210.000
1507.8600, -91.821
1507.8800,-210.000
1507.9000, -83.981
1507.9200, -83.895
1507.9400,-210.000
1507.9600,-210.000
1507.9800,-210.000
1508.0000, -87.490
1508.0200, -88.558
1508.0400,-210.000
1508.0600, -86.165
1508.0800,-210.000
1508.1000, -91.816
1508.1200, -85.863
1508.1400, -93.279
1508.1600, -85.564
1508.1800, -86.962
1508.2000, -83.960
1508.2200,-210.000
1508.2400, -82.519
1508.2600, -85.845
1508.2800,-210.000
1508.3000, -92.527
1508.3200, -83.926
1508.3400, -86.924
1508.3600, -86.407
1508.3800,-210.000
1508.4000,-210.000
1508.4200, -91.826
1508.4400,-210.000
1508.4600, -84.392
1508.4800, -83.310
1508.5000, -96.065
1508.5200, -86.568
1508.5400, -94.077
1508.5600, -85.679
1508.5800, -86.649
1508.6000, -86.184
1508.6200, -85.079
1508.6400, -86.321
1508.6600, -92.134
1508.6800,-210.000
1508.7000, -84.744
1508.7200, -82.229
1508.7400,-210.000
1508.7600, -88.651
1508.7800, -91.369
1508.8000, -83.352
1508.8200,-210.000
1508.8400, -85.077
1508.8600, -86.870
1508.8800, -86.646
1508.9000, -88.745
1508.9200, -86.642
1508.9400, -83.404
1508.9600,-210.000
1508.9800, -83.398
1509.0000,-210.000
1509.0200,-210.000
1509.0400, -84.776
1509.0600, -91.840
1509.0800,-210.000
1509.1000, -83.813
1509.1200, -84.132
1509.1400, -92.504
1509.1600,-210.000
1509.1800,-210.000
1509.2000, -88.335
1509.2200, -84.196
1509.2400, -83.123
1509.2600, -88.873
1509.2800, -81.894
1509.3000,-210.000
1509.3200, -83.125
1509.3400,-210.000
1509.3600, -82.463
1509.3800, -84.736
1509.4000,-210.000
1509.4200, -85.370
1509.4400, -88.691
1509.4600, -88.252
1509.4800, -81.919
1509.5000,-210.000
1509.5200, -83.768
1509.5400, -83.352
1509.5600,-210.000
1509.5800,-105.262
1509.6000, -90.639
1509.6200, -89.536
1509.6400, -85.033
1509.6600, -81.112
1509.6800,-210.000
1509.7000,-210.000
1509.7200, -82.638
1509.7400,-210.000
1509.7600, -83.802
1509.7800, -87.367
1509.8000, -88.607
1509.8200, -90.387
1509.8400,-210.000
1509.8600,-105.109
1509.8800, -87.941
1509.9000, -84.765
1509.9200,-210.000
1509.9400,-210.000
1509.9600,-210.000
1509.9800, -87.669
1510.0000, -80.970
1510.0200,-210.000
1510.0400, -92.916
1510.0600, -86.280
1510.0800, -89.543
1510.1000,-210.000
1510.1200, -84.619
1510.1400,-210.000
1510.1600, -86.152
1510.1800,-210.000
1510.2000,-210.000
1510.2200,-210.000
1510.2400, -84.360
1510.2600, -84.264
1510.2800,-210.000
1510.3000, -97.763
1510.3200, -84.799
1510.3400, -81.478
1510.3600, -93.206
1510.3800,-210.000
1510.4000, -81.106
1510.4200, -82.868
1510.4400,-210.000
1510.4600, -86.411
1510.4800, -85.814
1510.5000,-210.000
1510.5200, -86.198
1510.5400, -86.331
1510.5600, -92.810
1510.5800, -84.172
1510.6000,-210.000
1510.6200, -89.580
1510.6400, -87.176
1510.6600, -89.442
1510.6800,-210.000
1510.7000, -87.083
1510.7200, -87.800
1510.7400, -88.216
1510.7600, -82.031
1510.7800, -86.445
1510.8000,-210.000
1510.8200, -84.403
1510.8400, -85.851
1510.8600, -88.411
1510.8800,-210.000
1510.9000,-210.000
1510.9200,-210.000
1510.9400, -86.196
1510.9600, -84.641
1510.9800, -99.232
1511.0000, -84.327
1511.0200,-210.000
1511.0400,-210.000
1511.0600, -86.467
1511.0800,-210.000
1511.1000, -91.023
1511.1200, -85.767
1511.1400, -88.132
1511.1600, -85.849
1511.1800, -85.868
1511.2000, -88.587
1511.2200,-210.000
1511.2400, -81.398
1511.2600,-210.000
1511.2800, -84.148
1511.3000, -86.564
1511.3200, -85.001
1511.3400,-210.000
1511.3600, -81.811
1511.3800, -95.459
1511.4000, -88.528
1511.4200, -80.752
1511.4400,-210.000
1511.4600, -80.393
1511.4800, -98.549
1511.5000,-210.000
1511.5200, -87.994
1511.5400, -85.163
1511.5600, -84.318
1511.5800, -88.271
1511.6000,-210.000
1511.6200, -80.105
1511.6400, -82.918
1511.6600,-210.000
1511.6800,-210.000
1511.7000,-210.000
1511.7200, -89.734
1511.7400, -93.310
1511.7600, -81.389
1511.7800,-210.000
1511.8000,-210.000
1511.8200, -82.254
1511.8400,-210.000
1511.8600, -86.338
1511.8800, -84.984
1511.9000,-210.000
1511.9200,-102.363
1511.9400, -82.317
1511.9600,-210.000
1511.9800, -93.633
1512.0000,-210.000
1512.0200, -81.263
1512.0400, -83.942
1512.0600,-210.000
1512.0800, -85.488
1512.1000,-210.000
1512.1200, -88.569
1512.1400, -85.961
1512.1600, -87.735
1512.1800,-100.134
1512.2000, -89.500
1512.2200,-210.000
1512.2400,-210.000
1512.2600, -82.767
1512.2800, -81.877
1512.3000,-210.000
1512.3200,-210.000
1512.3400,-210.000
1512.3600, -83.127
1512.3800, -87.387
1512.4000, -85.062
1512.4200, -85.076
1512.4400,-210.000
1512.4600, -81.106
1512.4800,-210.000
1512.5000, -94.042
1512.5200, -86.145
1512.5400,-100.477
1512.5600, -89.607
1512.5800,-210.000
1512.6000, -83.233
1512.6200, -86.214
1512.6400, -83.489
1512.6600, -92.175
1512.6800, -85.261
1512.7000,-210.000
1512.7200, -89.331
1512.7400,-210.000
1512.7600, -83.792
1512.7800, -85.354
1512.8000, -92.287
1512.8200,-210.000
1512.8400,-100.658
1512.8600, -85.270
1512.8800,-210.000
1512.9000, -88.076
1512.9200, -87.166
1512.9400,-210.000
1512.9600, -84.306
1512.9800, -89.151
1513.0000,-210.000
1513.0200, -82.708
1513.0400, -89.677
1513.0600,-210.000
1513.0800, -92.721
1513.1000, -83.406
1513.1200,-210.000
1513.1400, -85.325
1513.1600,-210.000
1513.1800, -80.268
1513.2000,-210.000
1513.2200, -88.166
1513.2400,-210.000
1513.2600, -89.448
1513.2800, -84.375
1513.3000,-210.000
1513.3200, -89.323
1513.3400, -83.376
1513.3600,-210.000
1513.3800, -82.474
1513.4000,-210.000
1513.4200,-210.000
1513.4400, -83.127
1513.4600,-210.000
1513.4800, -80.276
1513.5000, -85.234
1513.5200,-210.000
1513.5400, -88.827
1513.5600, -88.810
1513.5800,-210.000
1513.6000, -82.366
1513.6200,-210.000
1513.6400,-210.000
1513.6600, -83.476
1513.6800, -85.882
1513.7000, -85.927
1513.7200, -88.204
1513.7400, -85.164
1513.7600, -95.785
1513.7800,-210.000
1513.8000, -84.794
1513.8200,-210.000
1513.8400, -85.581
1513.8600, -90.612
1513.8800, -86.001
1513.9000, -82.117
1513.9200, -86.679
1513.9400,-210.000
1513.9600,-210.000
1513.9800, -92.318
1514.0000, -88.637
1514.0200, -85.905
1514.0400, -83.850
1514.0600,-210.000
1514.0800, -83.783
1514.1000, -91.396
1514.1200,-210.000
1514.1400, -81.920
1514.1600, -86.838
1514.1800,-210.000
1514.2000, -87.656
1514.2200, -86.123
1514.2400, -82.989
1514.2600, -85.504
1514.2800,-210.000
1514.3000, -82.051
1514.3200,-210.000
1514.3400, -85.265
1514.3600,-210.000
1514.3800, -83.317
1514.4000, -83.812
1514.4200, -93.276
1514.4400, -84.190
1514.4600,-210.000
1514.4800, -83.479
1514.5000, -83.386
1514.5200,-210.000
1514.5400, -85.401
1514.5600, -89.356
1514.5800, -95.543
1514.6000, -92.226
1514.6200, -85.399
1514.6400, -84.744
1514.6600, -81.077
1514.6800,-210.000
1514.7000,-210.000
1514.7200, -88.843
1514.7400, -85.889
1514.7600, -86.510
1514.7800, -82.031
1514.8000,-210.000
1514.8200, -88.552
1514.8400,-210.000
1514.8600, -91.652
1514.8800, -82.929
1514.9000, -88.445
1514.9200, -85.694
1514.9400, -89.632
1514.9600, -83.703
1514.9800,-210.000
1515.0000,-210.000
1515.0200, -87.132
1515.0400, -84.279
1515.0600, -82.682
1515.0800, -82.508
1515.1000, -83.933
1515.1200,-210.000
1515.1400,-210.000
1515.1600, -87.399
1515.1800,-210.000
1515.2000, -93.450
1515.2200, -80.252
1515.2400,-210.000
1515.2600, -91.839
1515.2800, -83.494
1515.3000, -84.994
1515.3200, -86.708
1515.3400, -92.633
1515.3600, -84.085
1515.3800,-210.000
1515.4000, -86.092
1515.4200, -99.042
1515.4400,-210.000
1515.4600, -87.240
1515.4800,-210.000
1515.5000, -84.807
1515.5200,-210.000
1515.5400, -85.899
1515.5600, -84.933
1515.5800,-210.000
1515.6000, -89.792
1515.6200, -87.030
1515.6400, -86.316
1515.6600, -84.595
1515.6800,-210.000
1515.7000, -96.478
1515.7200, -84.603
1515.7400,-210.000
1515.7600, -82.971
1515.7800, -86.246
1515.8000,-210.000
1515.8200, -84.658
1515.8400,-210.000
1515.8600, -83.340
1515.8800,-210.000
1515.9000, -83.764
1515.9200, -85.418
1515.9400, -85.296
1515.9600, -84.192
1515.9800, -87.496
1516.0000, -90.872
1516.0200, -87.745
1516.0400, -92.001
1516.0600, -92.283
1516.0800, -82.690
1516.1000, -97.147
1516.1200, -93.033
1516.1400, -86.250
1516.1600, -85.066
1516.1800, -84.848
1516.2000, -91.463
1516.2200, -89.106
1516.2400, -89.796
1516.2600, -93.050
1516.2800, -86.387
1516.3000, -91.342
1516.3200, -85.657
1516.3400,-210.000
1516.3600, -81.673
1516.3800, -93.819
1516.4000, -85.366
1516.4200,-210.000
1516.4400, -92.105
1516.4600, -83.027
1516.4800,-210.000
1516.5000, -84.359
1516.5200, -91.432
1516.5400,-210.000
1516.5600, -85.642
1516.5800,-108.219
1516.6000, -85.127
1516.6200, -87.926
1516.6400,-102.397
1516.6600, -84.309
1516.6800, -92.890
1516.7000, -93.276
1516.7200, -89.029
1516.7400, -89.995
1516.7600,-210.000
1516.7800,-210.000
1516.8000,-210.000
1516.8200, -80.460
1516.8400,-210.000
1516.8600, -86.946
1516.8800, -86.867
1516.9000, -87.933
1516.9200, -85.156
1516.9400, -88.196
1516.9600, -88.602
1516.9800, -89.364
1517.0000, -87.522
1517.0200,-210.000
1517.0400, -91.727
1517.0600,-210.000
1517.0800, -83.328
1517.1000,-210.000
1517.1200,-210.000
1517.1400, -82.854
1517.1600,-106.758
1517.1800,-210.000
1517.2000,-210.000
1517.2200, -84.852
1517.2400,-210.000
1517.2600, -84.692
1517.2800,-210.000
1517.3000, -84.531
1517.3200, -84.862
1517.3400, -83.862
1517.3600,-210.000
1517.3800, -87.723
1517.4000,-210.000
1517.4200, -87.275
1517.4400,-210.000
1517.4600, -83.803
1517.4800, -81.951
1517.5000, -84.831
1517.5200, -93.396
1517.5400,-210.000
1517.5600,-210.000
1517.5800, -86.638
1517.6000, -83.017
1517.6200,-210.000
1517.6400, -85.921
1517.6600, -93.702
1517.6800, -85.595
1517.7000,-210.000
1517.7200, -89.590
1517.7400,-210.000
1517.7600, -93.999
1517.7800, -92.952
1517.8000, -96.304
1517.8200, -85.554
1517.8400, -87.442
1517.8600, -80.276
1517.8800,-210.000
1517.9000, -86.071
1517.9200,-100.447
1517.9400, -83.619
1517.9600, -92.622
1517.9800, -91.375
1518.0000,-210.000
1518.0200, -85.559
1518.0400, -88.196
1518.0600, -92.967
1518.0800, -87.426
1518.1000,-210.000
1518.1200, -87.042
1518.1400,-111.990
1518.1600, -84.336
1518.1800, -84.091
1518.2000,-210.000
1518.2200, -84.942
1518.2400, -88.459
1518.2600,-210.000
1518.2800, -88.704
1518.3000, -82.836
1518.3200, -83.447
1518.3400, -86.661
1518.3600,-210.000
1518.3800, -83.087
1518.4000,-210.000
1518.4200, -87.041
1518.4400, -84.243
1518.4600, -82.973
1518.4800, -89.056
1518.5000, -91.569
1518.5200, -86.649
1518.5400, -84.654
1518.5600,-210.000
1518.5800, -85.123
1518.6000, -83.859
1518.6200, -85.950
1518.6400, -86.171
1518.6600,-210.000
1518.6800, -83.387
1518.7000,-210.000
1518.7200, -87.558
1518.7400,-210.000
1518.7600, -87.124
1518.7800, -82.096
1518.8000, -83.979
1518.8200,-210.000
1518.8400, -83.090
1518.8600,-210.000
1518.8800, -85.966
1518.9000, -85.737
1518.9200, -94.691
1518.9400,-210.000
1518.9600, -90.615
1518.9800, -84.084
1519.0000, -97.294
1519.0200, -86.980
1519.0400, -81.644
1519.0600, -84.868
1519.0800, -85.279
1519.1000, -86.536
1519.1200,-210.000
1519.1400, -91.616
1519.1600, -97.615
1519.1800, -84.845
1519.2000,-210.000
1519.2200, -80.498
1519.2400,-210.000
1519.2600, -90.277
1519.2800, -88.533
1519.3000, -97.958
1519.3200, -90.258
1519.3400, -85.892
1519.3600, -90.702
1519.3800,-210.000
1519.4000, -85.893
1519.4200, -99.010
1519.4400, -87.489
1519.4600, -87.971
1519.4800, -88.781
1519.5000,-210.000
1519.5200, -83.260
1519.5400, -97.764
1519.5600, -90.909
1519.5800,-210.000
1519.6000, -83.241
1519.6200,-100.172
1519.6400, -82.296
1519.6600,-210.000
1519.6800, -90.229
1519.7000,-210.000
1519.7200, -91.331
1519.7400, -83.062
1519.7600,-210.000
1519.7800, -96.067
1519.8000, -89.546
1519.8200, -87.339
1519.8400,-210.000
1519.8600, -88.349
1519.8800,-210.000
1519.9000, -85.797
1519.9200,-210.000
1519.9400, -81.573
1519.9600,-210.000
1519.9800, -84.015
1520.0000, -87.801
1520.0200, -87.834
1520.0400, -91.648
1520.0600, -86.301
1520.0800,-210.000
1520.1000, -84.655
1520.1200,-210.000
1520.1400, -87.485
1520.1600, -93.839
1520.1800, -89.103
1520.2000, -95.692
1520.2200, -82.830
1520.2400, -88.894
1520.2600, -92.648
1520.2800, -84.952
1520.3000,-210.000
1520.3200, -83.141
1520.3400, -89.340
1520.3600,-210.000
1520.3800,-210.000
1520.4000, -86.231
1520.4200, -87.690
1520.4400, -84.189
1520.4600,-210.000
1520.4800, -98.559
1520.5000, -87.092
1520.5200, -89.034
1520.5400, -86.646
1520.5600,-210.000
1520.5800, -87.580
1520.6000,-210.000
1520.6200,-210.000
1520.6400, -85.626
1520.6600, -91.977
1520.6800,-210.000
1520.7000, -83.376
1520.7200, -86.698
1520.7400,-210.000
1520.7600,-210.000
1520.7800, -82.140
1520.8000,-210.000
1520.8200,-210.000
1520.8400, -82.675
1520.8600, -84.356
1520.8800,-210.000
1520.9000, -92.950
1520.9200, -91.423
1520.9400, -85.234
1520.9600,-210.000
1520.9800, -93.401
1521.0000, -90.112
1521.0200,-210.000
1521.0400, -84.789
1521.0600,-210.000
1521.0800, -86.935
1521.1000, -82.167
1521.1200,-210.000
1521.1400, -86.403
1521.1600, -85.170
1521.1800,-210.000
1521.2000, -95.479
1521.2200, -84.459
1521.2400, -93.837
1521.2600, -90.256
1521.2800, -92.298
1521.3000,-210.000
1521.3200, -85.351
1521.3400,-210.000
1521.3600, -88.071
1521.3800, -90.116
1521.4000, -89.012
1521.4200, -90.696
1521.4400, -86.632
1521.4600, -84.438
1521.4800, -92.435
1521.5000,-210.000
1521.5200,-210.000
1521.5400, -87.909
1521.5600, -83.779
1521.5800, -90.540
1521.6000, -86.205
1521.6200,-210.000
1521.6400, -83.644
1521.6600,-210.000
1521.6800,-210.000
1521.7000, -89.745
1521.7200, -91.159
1521.7400, -84.183
1521.7600, -81.768
1521.7800,-210.000
1521.8000, -85.526
1521.8200,-210.000
1521.8400,-210.000
1521.8600, -82.429
1521.8800, -88.161
1521.9000, -82.628
1521.9200, -87.856
1521.9400,-210.000
1521.9600,-210.000
1521.9800,-210.000
1522.0000, -83.553
1522.0200,-210.000
1522.0400, -82.853
1522.0600, -85.383
1522.0800,-210.000
1522.1000, -84.427
1522.1200, -83.308
1522.1400,-210.000
1522.1600,-210.000
1522.1800, -86.572
1522.2000, -88.874
1522.2200,-210.000
1522.2400, -88.392
1522.2600, -90.166
1522.2800, -83.834
1522.3000,-210.000
1522.3200, -84.779
1522.3400, -84.675
1522.3600,-210.000
1522.3800, -88.479
1522.4000,-210.000
1522.4200, -83.903
1522.4400, -88.872
1522.4600,-104.693
1522.4800, -86.318
1522.5000,-101.875
1522.5200,-210.000
1522.5400, -88.244
1522.5600,-210.000
1522.5800, -84.845
1522.6000, -92.825
1522.6200,-210.000
1522.6400, -83.170
1522.6600,-210.000
1522.6800, -88.885
1522.7000, -82.963
1522.7200,-210.000
1522.7400,-109.789
1522.7600, -83.300
1522.7800,-210.000
1522.8000,-210.000
1522.8200, -86.905
1522.8400, -84.566
1522.8600, -87.134
1522.8800,-210.000
1522.9000, -86.602
1522.9200, -95.022
1522.9400,-210.000
1522.9600,-210.000
1522.9800, -84.793
1523.0000, -85.650
1523.0200, -82.461
1523.0400, -91.732
1523.0600, -84.632
1523.0800,-210.000
1523.1000, -84.065
1523.1200, -98.366
1523.1400, -87.268
1523.1600, -87.829
1523.1800,-210.000
1523.2000, -88.283
1523.2200, -83.099
1523.2400, -86.240
1523.2600, -95.457
1523.2800, -86.356
1523.3000, -91.568
1523.3200, -84.918
1523.3400,-210.000
1523.3600, -84.450
1523.3800, -89.214
1523.4000, -85.465
1523.4200, -87.869
1523.4400, -83.600
1523.4600,-210.000
1523.4800, -88.308
1523.5000,-210.000
1523.5200, -84.678
1523.5400,-210.000
1523.5600, -84.491
1523.5800,-210.000
1523.6000, -99.512
1523.6200, -84.639
1523.6400, -90.324
1523.6600, -89.252
1523.6800,-210.000
1523.7000, -83.668
1523.7200,-210.000
1523.7400,-210.000
1523.7600, -87.129
1523.7800, -84.839
1523.8000, -97.908
1523.8200, -93.825
1523.8400, -87.074
1523.8600, -79.912
1523.8800,-210.000
1523.9000, -83.315
1523.9200, -92.619
1523.9400,-210.000
1523.9600, -84.741
1523.9800,-210.000
1524.0000,-210.000
1524.0200, -93.709
1524.0400, -85.213
1524.0600, -91.773
1524.0800, -82.075
1524.1000,-210.000
1524.1200,-210.000
1524.1400, -94.032
1524.1600, -87.794
1524.1800,-210.000
1524.2000, -80.135
1524.2200,-210.000
1524.2400, -83.846
1524.2600, -88.328
1524.2800,-210.000
1524.3000,-210.000
1524.3200, -80.259
1524.3400,-210.000
1524.3600, -85.154
1524.3800,-210.000
1524.4000, -87.217
1524.4200, -84.243
1524.4400, -87.362
1524.4600,-210.000
1524.4800,-210.000
1524.5000, -81.957
1524.5200,-210.000
1524.5400, -82.991
1524.5600,-210.000
1524.5800, -84.197
1524.6000,-210.000
1524.6200, -88.711
1524.6400,-210.000
1524.6600, -86.573
1524.6800, -83.055
1524.7000, -90.823
1524.7200, -87.056
1524.7400, -87.713
1524.7600, -86.832
1524.7800, -84.165
1524.8000, -92.201
1524.8200, -81.814
1524.8400,-210.000
1524.8600, -83.581
1524.8800,-210.000
1524.9000, -93.793
1524.9200,-210.000
1524.9400,-210.000
1524.9600,-210.000
1524.9800, -83.151
1525.0000, -90.406
1525.0200, -94.566
1525.0400, -86.004
1525.0600, -93.156
1525.0800, -91.875
1525.1000, -85.351
1525.1200, -84.281
1525.1400, -87.931
1525.1600,-210.000
1525.1800, -83.957
1525.2000,-210.000
1525.2200,-210.000
1525.2400, -85.790
1525.2600, -85.866
1525.2800, -81.913
1525.3000,-210.000
1525.3200,-210.000
1525.3400,-210.000
1525.3600, -84.995
1525.3800,-210.000
1525.4000,-210.000
1525.4200, -87.268
1525.4400, -86.058
1525.4600, -84.088
1525.4800,-210.000
1525.5000, -87.708
1525.5200, -84.278
1525.5400, -83.699
1525.5600, -92.423
1525.5800,-210.000
1525.6000,-210.000
1525.6200, -95.788
1525.6400, -87.731
1525.6600,-210.000
1525.6800, -87.446
1525.7000, -88.732
1525.7200, -83.322
1525.7400, -87.132
1525.7600, -89.262
1525.7800, -96.280
1525.8000, -86.663
1525.8200, -86.532
1525.8400, -88.221
1525.8600, -84.593
1525.8800, -84.739
1525.9000,-210.000
1525.9200,-210.000
1525.9400, -81.472
1525.9600,-210.000
1525.9800, -87.397
1526.0000,-210.000
1526.0200, -82.071
1526.0400,-210.000
1526.0600, -84.113
1526.0800, -87.116
1526.1000,-210.000
1526.1200,-210.000
1526.1400, -86.032
1526.1600, -85.150
1526.1800, -84.507
1526.2000, -88.955
1526.2200, -91.497
1526.2400,-210.000
1526.2600,-210.000
1526.2800, -89.922
1526.3000,-210.000
1526.3200, -94.411
1526.3400, -84.072
1526.3600, -84.494
1526.3800,-210.000
1526.4000, -82.565
1526.4200,-210.000
1526.4400, -93.391
1526.4600, -85.400
1526.4800, -80.820
1526.5000,-210.000
1526.5200,-210.000
1526.5400, -81.038
1526.5600, -88.150
1526.5800, -95.565
1526.6000, -82.915
1526.6200, -89.706
1526.6400, -87.096
1526.6600,-210.000
1526.6800, -87.322
1526.7000,-210.000
1526.7200,-210.000
1526.7400, -86.274
1526.7600, -85.276
1526.7800,-210.000
1526.8000, -83.698
1526.8200,-210.000
1526.8400,-210.000
1526.8600,-210.000
1526.8800, -84.444
1526.9000, -90.813
1526.9200, -92.079
1526.9400, -80.642
1526.9600,-210.000
1526.9800,-210.000
1527.0000, -95.869
1527.0200, -85.234
1527.0400, -88.198
1527.0600, -84.292
1527.0800, -85.405
1527.1000,-210.000
1527.1200, -99.776
1527.1400, -84.024
1527.1600, -89.979
1527.1800, -91.512
1527.2000, -95.148
1527.2200, -82.984
1527.2400, -93.766
1527.2600,-210.000
1527.2800, -84.431
1527.3000, -85.059
1527.3200, -84.402
1527.3400, -84.647
1527.3600, -87.219
1527.3800, -91.811
1527.4000, -84.579
1527.4200,-210.000
1527.4400, -84.065
1527.4600, -84.709
1527.4800, -86.542
1527.5000,-210.000
1527.5200,-210.000
1527.5400, -87.346
1527.5600, -88.305
1527.5800,-210.000
1527.6000, -82.171
1527.6200, -83.086
1527.6400,-210.000
1527.6600, -88.155
1527.6800, -90.162
1527.7000, -86.289
1527.7200, -83.440
1527.7400,-210.000
1527.7600, -82.596
1527.7800, -82.241
1527.8000, -89.114
1527.8200, -85.135
1527.8400, -88.310
1527.8600, -89.196
1527.8800, -87.203
1527.9000,-210.000
1527.9200, -83.364
1527.9400, -89.647
1527.9600, -88.298
1527.9800, -86.841
1528.0000, -88.232
1528.0200, -99.521
1528.0400,-210.000
1528.0600,-210.000
1528.0800, -81.679
1528.1000, -86.629
1528.1200,-210.000
1528.1400, -83.245
1528.1600, -85.769
1528.1800, -82.030
1528.2000,-210.000
1528.2200, -84.578
1528.2400,-210.000
1528.2600, -84.080
1528.2800, -84.146
1528.3000, -86.581
1528.3200, -88.424
1528.3400,-210.000
1528.3600,-210.000
1528.3800, -86.513
1528.4000, -86.756
1528.4200,-210.000
1528.4400,-210.000
1528.4600, -86.836
1528.4800, -83.744
1528.5000, -87.370
1528.5200, -82.881
1528.5400,-210.000
1528.5600, -84.533
1528.5800,-210.000
1528.6000,-210.000
1528.6200, -86.422
1528.6400, -82.981
1528.6600,-210.000
1528.6800, -83.645
1528.7000, -83.782
1528.7200,-210.000
1528.7400, -84.789
1528.7600,-210.000
1528.7800, -83.759
1528.8000, -92.310
1528.8200,-210.000
1528.8400,-210.000
1528.8600, -85.892
1528.8800,-210.000
1528.9000, -84.702
1528.9200,-210.000
1528.9400, -87.802
1528.9600, -91.560
1528.9800,-210.000
1529.0000,-210.000
1529.0200, -84.161
1529.0400, -85.510
1529.0600,-210.000
1529.0800,-210.000
1529.1000, -82.281
1529.1200, -92.802
1529.1400,-210.000
1529.1600,-210.000
1529.1800, -86.021
1529.2000, -84.478
1529.2200,-210.000
1529.2400,-210.000
1529.2600, -81.584
1529.2800,-210.000
1529.3000, -87.680
1529.3200, -95.848
1529.3400, -85.796
1529.3600, -85.676
1529.3800, -80.938
1529.4000,-210.000
1529.4200,-210.000
1529.4400, -84.562
1529.4600, -85.682
1529.4800, -82.130
1529.5000,-210.000
1529.5200, -90.683
1529.5400,-210.000
1529.5600, -87.515
1529.5800, -84.391
1529.6000, -92.661
1529.6200, -92.333
1529.6400, -99.200
1529.6600, -92.371
1529.6800, -83.004
1529.7000,-210.000
1529.7200, -93.891
1529.7400, -82.928
1529.7600, -89.226
1529.7800,-210.000
1529.8000, -87.631
1529.8200, -89.211
1529.8400, -95.915
1529.8600, -87.976
1529.8800, -86.193
1529.9000,-210.000
1529.9200,-210.000
1529.9400, -84.437
1529.9600, -94.653
1529.9800,-210.000
1530.0000, -86.527
1530.0200, -82.167
1530.0400,-210.000
1530.0600,-210.000
1530.0800, -86.849
1530.1000, -83.618
1530.1200, -85.370
1530.1400,-210.000
1530.1600, -83.888
1530.1800, -99.267
1530.2000, -87.991
1530.2200,-210.000
1530.2400, -85.505
1530.2600, -84.349
1530.2800, -85.521
1530.3000,-210.000
1530.3200,-210.000
1530.3400,-210.000
1530.3600, -82.362
1530.3800, -90.174
1530.4000,-210.000
1530.4200, -86.575
1530.4400, -88.236
1530.4600, -86.003
1530.4800,-210.000
1530.5000,-210.000
1530.5200, -88.963
1530.5400, -90.356
1530.5600, -87.071
1530.5800, -89.442
1530.6000, -86.651
1530.6200, -90.633
1530.6400, -85.536
1530.6600,-210.000
1530.6800, -79.669
1530.7000,-210.000
1530.7200,-210.000
1530.7400,-210.000
1530.7600, -85.678
1530.7800,-210.000
1530.8000, -87.632
1530.8200, -83.566
1530.8400, -88.830
1530.8600,-210.000
1530.8800, -94.516
1530.9000, -85.889
1530.9200, -86.189
1530.9400, -88.519
1530.9600, -82.573
1530.9800, -87.134
1531.0000,-210.000
1531.0200, -83.450
1531.0400,-210.000
1531.0600, -90.513
1531.0800, -84.133
1531.1000, -91.588
1531.1200,-210.000
1531.1400, -82.269
1531.1600,-210.000
1531.1800, -85.725
1531.2000, -83.262
1531.2200,-210.000
1531.2400, -87.630
1531.2600, -86.411
1531.2800,-210.000
1531.3000, -81.485
1531.3200, -83.501
1531.3400, -87.395
1531.3600, -86.804
1531.3800, -92.688
1531.4000,-210.000
1531.4200, -83.216
1531.4400, -83.435
1531.4600,-210.000
1531.4800, -88.939
1531.5000, -87.082
1531.5200, -93.759
1531.5400,-210.000
1531.5600, -85.202
1531.5800,-210.000
1531.6000, -83.951
1531.6200, -87.672
1531.6400, -84.147
1531.6600, -88.073
1531.6800,-210.000
1531.7000, -89.428
1531.7200, -85.169
1531.7400, -80.202
1531.7600, -89.413
1531.7800,-210.000
1531.8000, -81.437
1531.8200,-210.000
1531.8400, -87.983
1531.8600, -97.728
1531.8800, -85.847
1531.9000, -84.204
1531.9200, -82.310
1531.9400, -84.775
1531.9600, -84.354
1531.9800, -87.196
1532.0000,-210.000
1532.0200, -91.526
1532.0400,-106.510
1532.0600,-210.000
1532.0800, -84.398
1532.1000, -86.047
1532.1200,-210.000
1532.1400, -91.745
1532.1600,-210.000
1532.1800, -85.794
1532.2000,-210.000
1532.2200, -86.529
1532.2400, -90.107
1532.2600,-210.000
1532.2800, -86.016
1532.3000, -82.162
1532.3200,-210.000
1532.3400, -80.485
1532.3600,-210.000
1532.3800,-210.000
1532.4000,-210.000
1532.4200, -83.100
1532.4400, -84.896
1532.4600, -85.551
1532.4800, -85.033
1532.5000, -91.961
1532.5200, -84.888
1532.5400,-210.000
1532.5600,-210.000
1532.5800, -80.941
1532.6000, -85.363
1532.6200, -85.428
1532.6400, -87.084
1532.6600,-210.000
1532.6800, -86.341
1532.7000, -84.479
1532.7200, -89.014
1532.7400,-210.000
1532.7600, -83.433
1532.7800,-210.000
1532.8000, -84.639
1532.8200,-210.000
1532.8400,-210.000
1532.8600, -88.174
1532.8800,-210.000
1532.9000, -85.509
1532.9200, -93.322
1532.9400,-210.000
1532.9600, -84.767
1532.9800,-210.000
1533.0000, -89.180
1533.0200, -95.951
1533.0400, -81.635
1533.0600, -85.982
1533.0800, -86.403
1533.1000, -84.383
1533.1200,-210.000
1533.1400, -82.341
1533.1600, -95.528
1533.1800,-210.000
1533.2000, -84.431
1533.2200, -89.813
1533.2400,-210.000
1533.2600, -82.061
1533.2800, -83.770
1533.3000, -89.925
1533.3200, -86.071
1533.3400,-210.000
1533.3600,-210.000
1533.3800, -86.096
1533.4000, -87.893
1533.4200,-210.000
1533.4400, -83.217
1533.4600,-210.000
1533.4800, -84.703
1533.5000, -87.386
1533.5200,-106.860
1533.5400, -86.613
1533.5600, -84.122
1533.5800, -86.169
1533.6000, -87.283
1533.6200, -87.211
1533.6400, -85.241
1533.6600,-210.000
1533.6800, -87.286
1533.7000, -86.869
1533.7200, -89.194
1533.7400,-100.560
1533.7600,-210.000
1533.7800, -86.323
1533.8000, -88.177
1533.8200,-210.000
1533.8400, -85.038
1533.8600, -89.021
1533.8800,-100.067
1533.9000,-210.000
1533.9200, -83.597
1533.9400, -85.206
1533.9600,-210.000
1533.9800, -86.016
1534.0000, -86.129
1534.0200,-104.111
1534.0400, -96.442
1534.0600,-210.000
1534.0800,-210.000
1534.1000, -82.649
1534.1200,-210.000
1534.1400,-210.000
1534.1600, -85.298
1534.1800, -84.403
1534.2000,-210.000
1534.2200,-210.000
1534.2400, -99.328
1534.2600, -85.502
1534.2800, -85.288
1534.3000, -82.792
1534.3200, -94.943
1534.3400, -87.579
1534.3600, -86.152
1534.3800, -88.815
1534.4000, -82.367
1534.4200,-210.000
1534.4400, -82.166
1534.4600,-210.000
1534.4800,-210.000
1534.5000, -87.883
1534.5200, -81.693
1534.5400,-210.000
1534.5600, -86.496
1534.5800,-210.000
1534.6000, -80.418
1534.6200,-210.000
1534.6400, -89.782
1534.6600, -92.385
1534.6800, -93.133
1534.7000, -87.088
1534.7200,-210.000
1534.7400, -89.541
1534.7600, -81.830
1534.7800, -88.941
1534.8000, -83.092
1534.8200,-210.000
1534.8400,-210.000
1534.8600,-210.000
1534.8800, -82.954
1534.9000, -85.421
1534.9200, -89.331
1534.9400, -84.053
1534.9600, -93.835
1534.9800, -85.329
1535.0000, -91.489
1535.0200, -88.696
1535.0400, -92.272
1535.0600, -85.600
1535.0800,-210.000
1535.1000, -87.261
1535.1200, -83.700
1535.1400, -87.514
1535.1600,-210.000
1535.1800,-210.000
1535.2000,-210.000
1535.2200, -89.483
1535.2400, -80.637
1535.2600, -89.447
1535.2800,-210.000
1535.3000, -84.010
1535.3200, -91.469
1535.3400, -86.049
1535.3600,-210.000
1535.3800,-210.000
1535.4000, -93.617
1535.4200, -84.963
1535.4400, -89.270
1535.4600, -83.678
1535.4800,-210.000
1535.5000, -84.334
1535.5200,-210.000
1535.5400, -84.859
1535.5600,-210.000
1535.5800,-210.000
1535.6000, -82.318
1535.6200, -91.487
1535.6400, -84.969
1535.6600,-210.000
1535.6800,-210.000
1535.7000, -92.209
1535.7200, -84.437
1535.7400, -86.675
1535.7600,-100.547
1535.7800, -85.417
1535.8000,-210.000
1535.8200, -81.098
1535.8400, -86.786
1535.8600, -98.431
1535.8800, -87.338
1535.9000,-210.000
1535.9200, -83.341
1535.9400, -84.551
1535.9600,-210.000
1535.9800,-210.000
1536.0000,-210.000
1536.0200, -83.233
1536.0400, -84.256
1536.0600,-210.000
1536.0800, -84.321
1536.1000,-210.000
1536.1200,-210.000
1536.1400, -84.009
1536.1600, -82.564
1536.1800,-210.000
1536.2000, -88.708
1536.2200, -82.741
1536.2400,-210.000
1536.2600, -89.009
1536.2800, -84.196
1536.3000, -93.365
1536.3200,-210.000
1536.3400, -81.441
1536.3600, -84.178
1536.3800,-210.000
1536.4000, -85.468
1536.4200, -84.154
1536.4400,-210.000
1536.4600, -88.700
1536.4800, -90.726
1536.5000, -89.865
1536.5200,-210.000
1536.5400, -83.020
1536.5600, -89.910
1536.5800, -84.176
1536.6000, -88.592
1536.6200, -86.905
1536.6400, -83.065
1536.6600, -88.699
1536.6800,-210.000
1536.7000, -81.498
1536.7200,-210.000
1536.7400,-210.000
1536.7600, -87.323
1536.7800, -88.440
1536.8000,-210.000
1536.8200,-100.070
1536.8400, -83.696
1536.8600, -87.682
1536.8800, -81.931
1536.9000, -92.367
1536.9200, -86.956
1536.9400,-210.000
1536.9600, -90.550
1536.9800, -93.620
1537.0000,-210.000
1537.0200, -87.115
1537.0400,-210.000
1537.0600, -86.003
1537.0800, -87.226
1537.1000, -86.545
1537.1200, -85.876
1537.1400,-210.000
1537.1600,-210.000
1537.1800, -84.561
1537.2000, -93.825
1537.2200, -88.039
1537.2400, -84.618
1537.2600, -83.996
1537.2800,-210.000
1537.3000, -86.339
1537.3200, -83.045
1537.3400, -90.856
1537.3600, -84.340
1537.3800, -93.351
1537.4000, -85.927
1537.4200, -84.623
1537.4400,-210.000
1537.4600, -83.459
1537.4800, -86.507
1537.5000, -85.258
1537.5200,-210.000
1537.5400, -85.728
1537.5600,-210.000
1537.5800, -82.137
1537.6000,-210.000
1537.6200, -82.891
1537.6400, -94.222
1537.6600, -89.342
1537.6800, -85.589
1537.7000,-210.000
1537.7200, -82.030
1537.7400,-210.000
1537.7600, -88.518
1537.7800, -85.128
1537.8000, -87.386
1537.8200, -85.389
1537.8400,-210.000
1537.8600, -88.827
1537.8800, -84.462
1537.9000, -94.750
1537.9200, -83.681
1537.9400, -88.017
1537.9600, -87.669
1537.9800, -93.013
1538.0000,-210.000
1538.0200, -84.774
1538.0400, -86.516
1538.0600, -87.987
1538.0800, -95.039
1538.1000,-210.000
1538.1200, -86.562
1538.1400, -87.598
1538.1600, -90.646
1538.1800, -86.903
1538.2000,-210.000
1538.2200, -89.232
1538.2400, -81.488
1538.2600,-210.000
1538.2800, -83.165
1538.3000,-210.000
1538.3200,-210.000
1538.3400, -85.913
1538.3600, -84.468
1538.3800, -89.564
1538.4000,-210.000
1538.4200, -85.814
1538.4400, -92.830
1538.4600, -88.108
1538.4800, -81.084
1538.5000, -89.175
1538.5200,-210.000
1538.5400, -87.788
1538.5600, -87.208
1538.5800,-210.000
1538.6000, -83.117
1538.6200, -86.713
1538.6400,-210.000
1538.6600, -85.875
1538.6800, -81.690
1538.7000, -82.890
1538.7200, -87.912
1538.7400, -89.377
1538.7600,-210.000
1538.7800, -91.608
1538.8000, -90.259
1538.8200, -91.196
1538.8400, -85.510
1538.8600, -91.927
1538.8800, -93.263
1538.9000, -83.537
1538.9200, -88.333
1538.9400,-210.000
1538.9600, -83.286
1538.9800, -92.187
1539.0000, -87.448
1539.0200, -84.907
1539.0400, -86.426
1539.0600, -92.747
1539.0800, -86.323
1539.1000, -85.144
1539.1200, -84.294
1539.1400,-210.000
1539.1600, -85.626
1539.1800, -93.111
1539.2000, -84.564
1539.2200, -95.044
1539.2400,-210.000
1539.2600, -80.767
1539.2800, -91.414
1539.3000,-210.000
1539.3200, -91.489
1539.3400, -87.318
1539.3600,-210.000
1539.3800, -83.178
1539.4000, -85.988
1539.4200, -83.724
1539.4400, -84.196
1539.4600, -92.292
1539.4800,-210.000
1539.5000, -86.971
1539.5200, -85.316
1539.5400, -84.153
1539.5600, -83.194
1539.5800,-210.000
1539.6000,-210.000
1539.6200, -84.210
1539.6400,-210.000
1539.6600, -84.301
1539.6800, -94.831
1539.7000,-210.000
1539.7200, -81.870
1539.7400, -83.619
1539.7600,-210.000
1539.7800, -88.276
1539.8000, -85.781
1539.8200,-210.000
1539.8400,-210.000
1539.8600, -85.395
1539.8800, -93.610
1539.9000,-210.000
1539.9200, -84.728
1539.9400,-210.000
1539.9600, -82.954
1539.9800, -84.537
1540.0000, -94.601
1540.0200,-210.000
1540.0400, -82.823
1540.0600, -86.312
1540.0800, -87.266
1540.1000, -84.365
1540.1200,-210.000
1540.1400, -86.743
1540.1600, -93.127
1540.1800, -86.180
1540.2000, -89.676
1540.2200, -80.868
1540.2400, -88.112
1540.2600,-210.000
1540.2800, -96.075
1540.3000,-210.000
1540.3200, -86.461
1540.3400, -96.293
1540.3600, -85.735
1540.3800, -88.103
1540.4000, -86.233
1540.4200, -84.596
1540.4400, -87.811
1540.4600, -86.097
1540.4800,-210.000
1540.5000, -92.279
1540.5200,-210.000
1540.5400, -81.592
1540.5600,-210.000
1540.5800, -86.095
1540.6000, -83.825
1540.6200,-210.000
1540.6400,-210.000
1540.6600, -88.021
1540.6800, -85.400
1540.7000, -89.151
1540.7200, -89.216
1540.7400,-210.000
1540.7600, -87.789
1540.7800, -84.026
1540.8000,-210.000
1540.8200, -84.078
1540.8400,-210.000
1540.8600, -84.350
1540.8800, -87.432
1540.9000, -86.264
1540.9200,-210.000
1540.9400, -84.531
1540.9600, -94.536
1540.9800, -86.678
1541.0000, -91.432
1541.0200, -86.906
1541.0400,-210.000
1541.0600, -80.947
1541.0800, -89.382
1541.1000, -89.283
1541.1200, -86.884
1541.1400, -84.497
1541.1600, -89.102
1541.1800, -85.341
1541.2000, -85.720
1541.2200, -87.590
1541.2400, -86.359
1541.2600,-210.000
1541.2800, -87.184
1541.3000,-210.000
1541.3200,-210.000
1541.3400,-101.662
1541.3600,-109.669
1541.3800, -84.177
1541.4000, -95.547
1541.4200, -84.945
1541.4400,-210.000
1541.4600, -93.151
1541.4800, -82.813
1541.5000, -85.092
1541.5200, -86.536
1541.5400,-210.000
1541.5600, -89.340
1541.5800, -84.834
1541.6000, -88.623
1541.6200,-210.000
1541.6400, -99.019
1541.6600, -88.264
1541.6800, -86.509
1541.7000, -86.505
1541.7200, -90.456
1541.7400,-210.000
1541.7600, -82.399
1541.7800,-210.000
1541.8000,-210.000
1541.8200,-210.000
1541.8400, -82.014
1541.8600, -89.105
1541.8800,-210.000
1541.9000, -83.762
1541.9200,-210.000
1541.9400, -82.886
1541.9600,-210.000
1541.9800, -84.291
1542.0000, -85.228
1542.0200,-210.000
1542.0400, -89.236
1542.0600, -98.219
1542.0800, -84.068
1542.1000,-210.000
1542.1200, -81.996
1542.1400,-210.000
1542.1600, -86.326
1542.1800,-210.000
1542.2000, -88.976
1542.2200, -86.157
1542.2400, -86.362
1542.2600, -93.368
1542.2800, -88.081
1542.3000, -83.170
1542.3200, -87.246
1542.3400, -86.849
1542.3600, -85.082
1542.3800,-210.000
1542.4000,-210.000
1542.4200, -84.375
1542.4400, -86.220
1542.4600, -84.619
1542.4800, -88.818
1542.5000, -84.578
1542.5200,-210.000
1542.5400, -84.002
1542.5600,-210.000
1542.5800,-210.000
1542.6000, -86.501
1542.6200, -82.604
1542.6400, -96.751
1542.6600,-210.000
1542.6800, -93.866
1542.7000, -82.549
1542.7200, -82.403
1542.7400, -88.493
1542.7600, -82.664
1542.7800,-210.000
1542.8000,-210.000
1542.8200,-210.000
1542.8400, -84.122
1542.8600, -96.681
1542.8800, -83.133
1542.9000, -88.747
1542.9200, -86.170
1542.9400, -86.758
1542.9600, -82.612
1542.9800, -88.722
1543.0000,-210.000
1543.0200, -87.501
1543.0400, -84.079
1543.0600,-210.000
1543.0800,-210.000
1543.1000,-103.335
1543.1200, -82.530
1543.1400,-210.000
1543.1600, -87.603
1543.1800, -87.291
1543.2000, -90.244
1543.2200, -83.796
1543.2400,-210.000
1543.2600, -83.394
1543.2800,-210.000
1543.3000, -85.305
1543.3200,-210.000
1543.3400, -80.730
1543.3600,-210.000
1543.3800, -84.593
1543.4000,-210.000
1543.4200, -85.015
1543.4400,-210.000
1543.4600,-210.000
1543.4800, -84.987
1543.5000, -85.405
1543.5200, -84.187
1543.5400, -91.101
1543.5600,-210.000
1543.5800, -84.671
1543.6000, -87.151
1543.6200,-210.000
1543.6400, -98.411
1543.6600, -84.358
1543.6800,-210.000
1543.7000, -84.694
1543.7200,-210.000
1543.7400,-210.000
1543.7600, -85.246
1543.7800, -86.786
1543.8000, -85.536
1543.8200,-210.000
1543.8400, -87.126
1543.8600, -85.867
1543.8800, -98.067
1543.9000,-210.000
1543.9200, -86.143
1543.9400, -87.001
1543.9600, -86.213
1543.9800,-210.000
1544.0000, -82.225
1544.0200,-210.000
1544.0400, -87.375
1544.0600,-210.000
1544.0800, -86.483
1544.1000, -87.434
1544.1200,-210.000
1544.1400, -91.828
1544.1600,-210.000
1544.1800, -89.260
1544.2000, -85.125
1544.2200,-210.000
1544.2400,-210.000
1544.2600, -87.737
1544.2800,-101.363
1544.3000, -82.177
1544.3200, -91.624
1544.3400,-210.000
1544.3600, -83.192
1544.3800, -87.394
1544.4000, -88.300
1544.4200, -86.547
1544.4400, -86.215
1544.4600, -85.140
1544.4800,-210.000
1544.5000,-210.000
1544.5200, -86.294
1544.5400, -83.483
1544.5600,-210.000
1544.5800, -84.247
1544.6000, -86.345
1544.6200, -94.094
1544.6400,-210.000
1544.6600, -81.718
1544.6800, -86.035
1544.7000,-210.000
1544.7200,-101.865
1544.7400, -89.102
1544.7600, -95.292
1544.7800, -91.450
1544.8000, -89.444
1544.8200, -85.205
1544.8400, -83.409
1544.8600,-210.000
1544.8800, -82.295
1544.9000,-210.000
1544.9200, -85.975
1544.9400, -87.860
1544.9600, -87.003
1544.9800, -84.928
1545.0000, -87.863
1545.0200,-101.632
1545.0400, -86.970
1545.0600,-210.000
1545.0800, -93.520
1545.1000,-210.000
1545.1200,-210.000
1545.1400, -84.062
1545.1600, -89.198
1545.1800, -99.604
1545.2000, -92.978
1545.2200, -86.775
1545.2400, -86.705
1545.2600, -90.308
1545.2800, -85.838
1545.3000, -83.825
1545.3200, -91.639
1545.3400, -85.914
1545.3600, -85.317
1545.3800,-210.000
1545.4000,-210.000
1545.4200, -84.212
1545.4400, -90.013
1545.4600, -88.530
1545.4800, -95.206
1545.5000, -84.697
1545.5200, -85.044
1545.5400, -88.523
1545.5600, -84.861
1545.5800, -84.325
1545.6000, -86.804
1545.6200, -92.404
1545.6400,-210.000
1545.6600, -84.190
1545.6800,-100.126
1545.7000, -83.835
1545.7200, -86.510
1545.7400,-210.000
1545.7600,-210.000
1545.7800, -82.947
1545.8000, -90.826
1545.8200, -82.765
1545.8400, -89.832
1545.8600,-210.000
1545.8800, -82.413
1545.9000,-210.000
1545.9200, -88.213
1545.9400, -90.489
1545.9600, -84.374
1545.9800, -86.071
1546.0000, -91.189
1546.0200, -82.391
1546.0400, -85.118
1546.0600, -83.726
1546.0800,-210.000
1546.1000, -87.152
1546.1200,-210.000
1546.1400,-210.000
1546.1600, -80.389
1546.1800,-210.000
1546.2000, -84.158
1546.2200, -91.698
1546.2400, -82.677
1546.2600,-210.000
1546.2800, -82.805
1546.3000, -88.160
1546.3200, -84.458
1546.3400,-210.000
1546.3600, -90.813
1546.3800,-210.000
1546.4000, -88.280
1546.4200, -84.575
1546.4400,-210.000
1546.4600, -82.971
1546.4800, -83.382
1546.5000,-210.000
1546.5200, -83.678
1546.5400, -88.997
1546.5600, -91.569
1546.5800, -87.205
1546.6000, -85.740
1546.6200, -84.845
1546.6400,-210.000
1546.6600, -85.270
1546.6800, -84.142
1546.7000, -86.707
1546.7200,-210.000
1546.7400,-102.319
1546.7600, -82.706
1546.7800,-210.000
1546.8000,-210.000
1546.8200, -87.776
1546.8400, -82.695
1546.8600,-210.000
1546.8800, -94.857
1546.9000,-106.542
1546.9200, -97.089
1546.9400, -84.272
1546.9600,-210.000
1546.9800, -84.964
1547.0000, -90.893
1547.0200,-210.000
1547.0400,-210.000
1547.0600, -85.296
1547.0800, -87.139
1547.1000,-102.303
1547.1200, -85.680
1547.1400, -81.993
1547.1600, -83.747
1547.1800, -95.015
1547.2000, -83.928
1547.2200, -88.132
1547.2400,-210.000
1547.2600, -84.811
1547.2800,-210.000
1547.3000, -86.390
1547.3200, -87.351
1547.3400, -85.165
1547.3600, -82.189
1547.3800, -91.751
1547.4000, -87.931
1547.4200, -83.632
1547.4400, -92.048
1547.4600, -97.250
1547.4800, -90.840
1547.5000,-210.000
1547.5200, -81.291
1547.5400,-210.000
1547.5600, -83.213
1547.5800, -86.669
1547.6000, -90.853
1547.6200, -87.845
1547.6400, -87.211
1547.6600, -89.506
1547.6800, -90.000
1547.7000, -87.969
1547.7200, -82.039
1547.7400,-210.000
1547.7600, -82.993
1547.7800,-210.000
1547.8000,-210.000
1547.8200,-210.000
1547.8400, -84.224
1547.8600,-210.000
1547.8800, -82.326
1547.9000, -94.693
1547.9200, -87.198
1547.9400, -89.491
1547.9600,-210.000
1547.9800, -84.550
1548.0000, -85.974
1548.0200, -84.833
1548.0400,-210.000
1548.0600,-210.000
1548.0800, -82.852
1548.1000, -82.969
1548.1200, -85.638
1548.1400, -91.520
1548.1600, -89.591
1548.1800, -85.387
1548.2000, -91.732
1548.2200, -87.311
1548.2400,-210.000
1548.2600,-210.000
1548.2800, -83.819
1548.3000, -83.898
1548.3200,-210.000
1548.3400,-106.353
1548.3600, -83.895
1548.3800,-210.000
1548.4000, -89.907
1548.4200,-210.000
1548.4400, -82.188
1548.4600, -81.495
1548.4800,-210.000
1548.5000, -85.643
1548.5200, -97.900
1548.5400, -83.524
1548.5600, -94.135
1548.5800, -87.251
1548.6000,-210.000
1548.6200,-210.000
1548.6400, -89.239
1548.6600, -80.504
1548.6800, -83.727
1548.7000, -85.147
1548.7200,-210.000
1548.7400,-210.000
1548.7600, -86.057
1548.7800, -90.936
1548.8000, -83.532
1548.8200,-210.000
1548.8400, -81.258
1548.8600, -90.999
1548.8800,-210.000
1548.9000, -85.713
1548.9200,-210.000
1548.9400, -88.420
1548.9600, -87.346
1548.9800, -85.099
1549.0000, -84.669
1549.0200,-210.000
1549.0400,-210.000
1549.0600, -90.591
1549.0800, -91.904
1549.1000, -82.236
1549.1200, -87.797
1549.1400, -86.745
1549.1600,-210.000
1549.1800,-210.000
1549.2000,-210.000
1549.2200, -84.732
1549.2400, -91.567
1549.2600, -88.415
1549.2800, -95.931
1549.3000, -85.161
1549.3200, -84.898
1549.3400,-210.000
1549.3600, -83.696
1549.3800, -86.959
1549.4000,-210.000
1549.4200, -82.258
1549.4400, -85.131
1549.4600, -90.831
1549.4800, -83.490
1549.5000, -84.000
1549.5200, -87.884
1549.5400,-210.000
1549.5600, -88.728
1549.5800, -86.237
1549.6000, -90.155
1549.6200,-210.000
1549.6400, -83.416
1549.6600, -90.981
1549.6800, -81.058
1549.7000, -85.580
1549.7200,-210.000
1549.7400, -84.864
1549.7600, -85.317
1549.7800, -85.755
1549.8000,-210.000
1549.8200,-210.000
1549.8400, -81.027
1549.8600,-105.202
1549.8800, -88.922
1549.9000, -88.834
1549.9200, -83.737
1549.9400, -93.836
1549.9600, -89.468
1549.9800,-210.000
1550.0000, -80.942
1550.0200,-210.000
1550.0400,-210.000
1550.0600, -93.929
1550.0800, -85.032
1550.1000, -92.930
1550.1200, -87.301
1550.1400, -87.265
1550.1600, -82.261
1550.1800, -83.646
1550.2000,-210.000
1550.2200, -82.790
1550.2400, -82.132
1550.2600,-210.000
1550.2800,-210.000
1550.3000,-210.000
1550.3200, -89.582
1550.3400, -82.112
1550.3600,-210.000
1550.3800, -87.194
1550.4000, -82.491
1550.4200, -93.685
1550.4400, -82.104
1550.4600,-210.000
1550.4800, -83.095
1550.5000, -90.750
1550.5200, -86.320
1550.5400,-210.000
1550.5600, -81.929
1550.5800, -83.213
1550.6000,-210.000
1550.6200, -86.937
1550.6400,-210.000
1550.6600,-210.000
1550.6800, -87.094
1550.7000, -87.543
1550.7200,-210.000
1550.7400, -84.882
1550.7600,-210.000
1550.7800, -86.536
1550.8000,-210.000
1550.8200, -82.976
1550.8400, -84.624
1550.8600, -84.516
1550.8800, -90.297
1550.9000, -81.954
1550.9200, -86.755
1550.9400, -86.855
1550.9600,-210.000
1550.9800, -91.373
1551.0000, -89.698
1551.0200, -86.441
1551.0400, -93.115
1551.0600,-210.000
1551.0800, -85.645
1551.1000,-210.000
1551.1200,-210.000
1551.1400, -87.123
1551.1600, -85.514
1551.1800, -88.260
1551.2000,-210.000
1551.2200, -91.827
1551.2400, -92.343
1551.2600, -83.504
1551.2800, -87.470
1551.3000, -85.329
1551.3200,-210.000
1551.3400,-210.000
1551.3600, -87.933
1551.3800, -86.594
1551.4000, -85.725
1551.4200,-210.000
1551.4400, -83.527
1551.4600, -81.602
1551.4800, -94.559
1551.5000,-210.000
1551.5200, -83.855
1551.5400, -85.827
1551.5600, -89.667
1551.5800, -84.087
1551.6000,-210.000
1551.6200, -85.893
1551.6400, -84.360
1551.6600, -85.465
1551.6800,-210.000
1551.7000, -86.367
1551.7200, -88.738
1551.7400,-210.000
1551.7600, -92.442
1551.7800, -84.126
1551.8000, -87.580
1551.8200, -80.725
1551.8400,-210.000
1551.8600,-210.000
1551.8800, -83.189
1551.9000,-210.000
1551.9200,-210.000
1551.9400, -84.213
1551.9600, -88.530
1551.9800, -83.952
1552.0000,-210.000
1552.0200,-210.000
1552.0400,-210.000
1552.0600, -84.775
1552.0800, -87.696
1552.1000,-210.000
1552.1200, -82.494
1552.1400, -90.869
1552.1600, -84.670
1552.1800, -85.470
1552.2000,-210.000
1552.2200, -96.120
1552.2400,-210.000
1552.2600, -90.250
1552.2800, -98.130
1552.3000, -83.892
1552.3200,-210.000
1552.3400,-210.000
1552.3600, -85.018
1552.3800, -87.721
1552.4000, -87.460
1552.4200,-210.000
1552.4400, -84.276
1552.4600,-210.000
1552.4800, -88.261
1552.5000,-210.000
1552.5200, -83.896
1552.5400,-210.000
1552.5600, -85.337
1552.5800, -87.130
1552.6000,-210.000
1552.6200, -92.424
1552.6400, -83.607
1552.6600,-210.000
1552.6800, -82.399
1552.7000,-210.000
1552.7200, -86.216
1552.7400, -90.909
1552.7600, -87.433
1552.7800, -86.895
1552.8000, -82.318
1552.8200, -86.111
1552.8400, -84.775
1552.8600,-210.000
1552.8800,-210.000
1552.9000, -88.840
1552.9200,-210.000
1552.9400, -91.108
1552.9600, -80.770
1552.9800, -89.223
1553.0000, -88.432
1553.0200,-210.000
1553.0400, -83.637
1553.0600,-210.000
1553.0800, -93.575
1553.1000, -84.399
1553.1200, -91.054
1553.1400, -91.112
1553.1600, -86.717
1553.1800, -89.788
1553.2000,-210.000
1553.2200, -81.960
1553.2400,-210.000
1553.2600, -87.831
1553.2800,-210.000
1553.3000, -86.154
1553.3200, -86.754
1553.3400, -84.070
1553.3600,-210.000
1553.3800, -84.679
1553.4000, -86.228
1553.4200, -90.356
1553.4400, -83.599
1553.4600, -95.224
1553.4800, -97.001
1553.5000, -86.672
1553.5200,-210.000
1553.5400, -84.426
1553.5600,-210.000
1553.5800, -86.668
1553.6000, -95.372
1553.6200,-210.000
1553.6400, -82.307
1553.6600, -84.409
1553.6800, -86.497
1553.7000, -93.220
1553.7200, -86.477
1553.7400, -92.144
1553.7600, -87.585
1553.7800,-210.000
1553.8000,-100.154
1553.8200,-210.000
1553.8400,-210.000
1553.8600, -83.343
1553.8800, -91.315
1553.9000, -81.687
1553.9200,-210.000
1553.9400,-210.000
1553.9600,-210.000
1553.9800,-210.000
1554.0000, -86.364
1554.0200, -88.668
1554.0400, -89.554
1554.0600, -82.787
1554.0800,-210.000
1554.1000, -92.500
1554.1200, -83.045
1554.1400, -83.334
1554.1600,-210.000
1554.1800, -89.319
1554.2000,-210.000
1554.2200, -86.628
1554.2400,-210.000
1554.2600, -82.023
1554.2800, -84.069
1554.3000,-210.000
1554.3200,-210.000
1554.3400, -83.850
1554.3600, -86.806
1554.3800,-210.000
1554.4000, -83.028
1554.4200, -88.918
1554.4400,-210.000
1554.4600, -91.363
1554.4800, -85.457
1554.5000, -92.082
1554.5200, -93.056
1554.5400, -87.272
1554.5600,-210.000
1554.5800,-210.000
1554.6000,-210.000
1554.6200, -83.959
1554.6400, -83.344
1554.6600,-210.000
1554.6800, -86.206
1554.7000, -88.702
1554.7200, -82.443
1554.7400, -85.106
1554.7600,-104.989
1554.7800, -83.364
1554.8000,-210.000
1554.8200, -85.804
1554.8400,-210.000
1554.8600, -82.091
1554.8800, -95.061
1554.9000,-210.000
1554.9200, -87.989
1554.9400, -85.492
1554.9600, -97.013
1554.9800, -83.727
1555.0000, -89.823
1555.0200, -96.289
1555.0400, -87.175
1555.0600, -90.103
1555.0800, -82.057
1555.1000,-210.000
1555.1200, -88.958
1555.1400, -86.643
1555.1600, -83.577
1555.1800,-210.000
1555.2000, -89.526
1555.2200, -84.846
1555.2400,-210.000
1555.2600, -83.863
1555.2800, -85.226
1555.3000,-210.000
1555.3200, -84.396
1555.3400,-210.000
1555.3600, -82.730
1555.3800,-210.000
1555.4000, -86.163
1555.4200, -85.114
1555.4400, -96.079
1555.4600,-210.000
1555.4800, -85.599
1555.5000, -84.897
1555.5200,-210.000
1555.5400, -81.125
1555.5600, -84.067
1555.5800,-210.000
1555.6000, -83.451
1555.6200, -83.500
1555.6400, -87.944
1555.6600, -83.644
1555.6800,-210.000
1555.7000,-210.000
1555.7200,-210.000
1555.7400, -85.952
1555.7600,-210.000
1555.7800,-210.000
1555.8000, -87.644
1555.8200, -87.635
1555.8400,-210.000
1555.8600, -85.361
1555.8800, -79.929
1555.9000,-210.000
1555.9200, -88.930
1555.9400,-210.000
1555.9600, -82.439
1555.9800, -86.115
1556.0000, -91.700
1556.0200, -83.547
1556.0400,-210.000
1556.0600, -90.049
1556.0800, -86.465
1556.1000, -88.526
1556.1200,-210.000
1556.1400, -82.421
1556.1600,-210.000
1556.1800, -83.542
1556.2000, -82.885
1556.2200,-210.000
1556.2400, -82.709
1556.2600,-210.000
1556.2800, -89.108
1556.3000, -89.082
1556.3200, -89.825
1556.3400,-210.000
1556.3600, -84.914
1556.3800, -86.476
1556.4000, -87.787
1556.4200,-210.000
1556.4400,-210.000
1556.4600, -88.923
1556.4800, -81.301
1556.5000,-210.000
1556.5200, -90.796
1556.5400, -85.113
1556.5600, -85.152
1556.5800,-210.000
1556.6000, -84.928
1556.6200, -85.911
1556.6400, -92.242
1556.6600, -82.398
1556.6800, -88.047
1556.7000, -97.592
1556.7200,-210.000
1556.7400,-210.000
1556.7600, -84.703
1556.7800,-210.000
1556.8000, -83.965
1556.8200, -83.684
1556.8400, -85.329
1556.8600,-210.000
1556.8800, -91.924
1556.9000, -84.006
1556.9200, -83.371
1556.9400,-210.000
1556.9600, -86.933
1556.9800,-210.000
1557.0000,-210.000
1557.0200, -87.332
1557.0400, -87.085
1557.0600, -84.984
1557.0800,-210.000
1557.1000, -82.148
1557.1200,-210.000
1557.1400, -88.253
1557.1600, -85.138
1557.1800, -87.305
1557.2000, -87.201
1557.2200,-102.656
1557.2400, -93.198
1557.2600,-210.000
1557.2800, -86.979
1557.3000, -80.942
1557.3200, -84.524
1557.3400, -87.735
1557.3600,-210.000
1557.3800, -85.955
1557.4000, -82.539
1557.4200,-210.000
1557.4400,-210.000
1557.4600, -82.416
1557.4800,-210.000
1557.5000, -88.641
1557.5200, -92.270
1557.5400, -84.359
1557.5600,-210.000
1557.5800, -84.097
1557.6000, -92.286
1557.6200, -83.147
1557.6400, -88.804
1557.6600, -96.475
1557.6800, -88.286
1557.7000, -87.377
1557.7200, -85.398
1557.7400, -90.882
1557.7600, -82.290
1557.7800,-210.000
1557.8000, -87.992
1557.8200,-210.000
1557.8400, -90.898
1557.8600,-210.000
1557.8800, -84.347
1557.9000, -83.338
1557.9200, -88.924
1557.9400, -83.675
1557.9600, -94.101
1557.9800,-210.000
1558.0000, -82.434
1558.0200, -86.136
1558.0400,-210.000
1558.0600, -89.063
1558.0800,-210.000
1558.1000, -83.194
1558.1200, -83.169
1558.1400, -83.354
1558.1600,-210.000
1558.1800, -81.752
1558.2000, -91.459
1558.2200, -85.840
1558.2400, -91.732
1558.2600, -83.333
1558.2800, -85.966
1558.3000, -88.548
1558.3200,-210.000
1558.3400, -87.938
1558.3600, -88.638
1558.3800, -82.508
1558.4000,-210.000
1558.4200, -85.528
1558.4400, -83.754
1558.4600, -90.513
1558.4800, -89.189
1558.5000, -90.205
1558.5200, -86.018
1558.5400, -84.611
1558.5600, -82.377
1558.5800,-210.000
1558.6000,-210.000
1558.6200, -81.908
1558.6400,-210.000
1558.6600, -83.151
1558.6800, -82.111
1558.7000,-210.000
1558.7200, -96.239
1558.7400,-210.000
1558.7600, -81.853
1558.7800,-210.000
1558.8000, -84.619
1558.8200, -88.243
1558.8400, -88.834
1558.8600,-210.000
1558.8800, -86.336
1558.9000, -84.238
1558.9200, -88.276
1558.9400, -81.242
1558.9600, -90.362
1558.9800, -90.423
1559.0000,-210.000
1559.0200, -89.963
1559.0400, -81.905
1559.0600,-210.000
1559.0800, -81.460
1559.1000, -84.839
1559.1200, -84.672
1559.1400, -83.682
1559.1600,-210.000
1559.1800, -80.511
1559.2000,-210.000
1559.2200, -84.631
1559.2400, -83.502
1559.2600, -92.861
1559.2800,-210.000
1559.3000, -83.532
1559.3200, -92.992
1559.3400, -89.600
1559.3600,-210.000
1559.3800, -83.648
1559.4000, -84.166
1559.4200, -83.784
1559.4400, -88.731
1559.4600,-210.000
1559.4800,-210.000
1559.5000, -84.938
1559.5200, -86.785
1559.5400, -87.917
1559.5600,-210.000
1559.5800,-210.000
1559.6000, -84.325
1559.6200, -87.127
1559.6400,-210.000
1559.6600,-210.000
1559.6800,-210.000
1559.7000, -81.523
1559.7200, -88.279
1559.7400, -85.086
1559.7600,-210.000
1559.7800, -85.238
1559.8000, -89.718
1559.8200, -86.217
1559.8400, -86.493
1559.8600, -81.948
1559.8800,-210.000
1559.9000, -84.937
1559.9200, -89.589
1559.9400, -95.786
1559.9600, -85.225
1559.9800, -85.349
1560.0000, -88.033
1560.0200, -85.535
1560.0400,-210.000
1560.0600, -85.920
1560.0800, -84.552
1560.1000, -85.949
1560.1200, -91.241
1560.1400, -83.049
1560.1600, -88.364
1560.1800,-210.000
1560.2000,-210.000
1560.2200, -86.053
1560.2400, -83.667
1560.2600, -89.649
1560.2800, -88.820
1560.3000, -93.553
1560.3200, -91.523
1560.3400,-210.000
1560.3600, -85.770
1560.3800, -85.330
1560.4000,-210.000
1560.4200, -92.728
1560.4400,-210.000
1560.4600, -89.000
1560.4800, -84.889
1560.5000,-210.000
1560.5200, -86.666
1560.5400, -84.673
1560.5600,-210.000
1560.5800, -85.215
1560.6000, -99.753
1560.6200, -84.789
1560.6400,-210.000
1560.6600, -83.745
1560.6800, -86.389
1560.7000,-210.000
1560.7200,-210.000
1560.7400, -95.510
1560.7600, -91.443
1560.7800, -87.929
1560.8000,-210.000
1560.8200, -84.322
1560.8400, -83.149
1560.8600,-210.000
1560.8800, -85.354
1560.9000, -94.010
1560.9200, -86.005
1560.9400, -85.509
1560.9600,-210.000
1560.9800, -89.150
1561.0000,-210.000
1561.0200, -85.394
1561.0400,-210.000
1561.0600,-210.000
1561.0800, -84.543
1561.1000, -83.057
1561.1200, -84.811
1561.1400,-210.000
1561.1600,-210.000
1561.1800,-104.932
1561.2000, -90.737
1561.2200, -85.242
1561.2400, -86.414
1561.2600, -99.064
1561.2800, -82.287
1561.3000, -84.902
1561.3200, -91.089
1561.3400,-210.000
1561.3600, -84.304
1561.3800, -92.209
1561.4000,-210.000
1561.4200, -84.379
1561.4400,-210.000
1561.4600, -88.575
1561.4800, -87.008
1561.5000, -88.125
1561.5200, -87.092
1561.5400, -85.684
1561.5600, -90.186
1561.5800, -87.793
1561.6000, -87.386
1561.6200, -88.732
1561.6400,-210.000
1561.6600,-210.000
1561.6800, -85.209
1561.7000, -83.097
1561.7200,-210.000
1561.7400, -83.410
1561.7600, -82.066
1561.7800, -88.795
1561.8000, -88.052
1561.8200,-210.000
1561.8400, -82.742
1561.8600,-210.000
1561.8800, -81.957
1561.9000,-210.000
1561.9200, -86.053
1561.9400, -82.531
1561.9600, -86.575
1561.9800, -97.124
1562.0000, -84.053
1562.0200, -85.253
1562.0400, -93.992
1562.0600,-210.000
1562.0800, -83.998
1562.1000, -85.928
1562.1200,-210.000
1562.1400, -89.064
1562.1600, -85.896
1562.1800,-210.000
1562.2000, -86.896
1562.2200, -93.692
1562.2400, -85.852
1562.2600,-210.000
1562.2800, -90.587
1562.3000, -82.758
1562.3200,-210.000
1562.3400,-210.000
1562.3600, -83.817
1562.3800, -83.785
1562.4000, -87.923
1562.4200, -85.398
1562.4400, -85.586
1562.4600, -90.357
1562.4800,-210.000
1562.5000, -87.491
1562.5200, -86.083
1562.5400,-210.000
1562.5600, -83.614
1562.5800, -82.036
1562.6000,-210.000
1562.6200, -90.935
1562.6400,-210.000
1562.6600, -81.614
1562.6800, -90.743
1562.7000, -91.405
1562.7200,-210.000
1562.7400,-210.000
1562.7600, -84.565
1562.7800,-210.000
1562.8000,-210.000
1562.8200, -89.969
1562.8400, -82.855
1562.8600,-210.000
1562.8800, -94.717
1562.9000, -84.843
1562.9200, -90.925
1562.9400, -81.411
1562.9600, -84.304
1562.9800,-210.000
1563.0000,-210.000
1563.0200, -83.526
1563.0400,-210.000
1563.0600, -82.456
1563.0800, -85.335
1563.1000,-210.000
1563.1200,-210.000
1563.1400, -84.301
1563.1600, -83.633
1563.1800,-210.000
1563.2000,-210.000
1563.2200, -84.943
1563.2400, -92.604
1563.2600, -84.614
1563.2800, -84.483
1563.3000,-210.000
1563.3200, -82.382
1563.3400,-210.000
1563.3600, -85.762
1563.3800,-210.000
1563.4000, -89.880
1563.4200,-210.000
1563.4400, -81.728
1563.4600,-210.000
1563.4800, -82.397
1563.5000,-210.000
1563.5200, -82.610
1563.5400,-210.000
1563.5600, -98.841
1563.5800, -84.568
1563.6000,-210.000
1563.6200, -85.649
1563.6400, -83.492
1563.6600,-210.000
1563.6800,-100.525
1563.7000, -87.459
1563.7200, -82.445
1563.7400,-210.000
1563.7600, -87.076
1563.7800,-103.285
1563.8000, -93.741
1563.8200, -86.381
1563.8400,-210.000
1563.8600, -84.793
1563.8800,-210.000
1563.9000, -83.658
1563.9200, -83.093
1563.9400, -97.033
1563.9600,-210.000
1563.9800, -83.569
1564.0000,-210.000
1564.0200, -86.425
1564.0400,-210.000
1564.0600, -86.031
1564.0800, -85.928
1564.1000,-210.000
1564.1200, -95.642
1564.1400, -83.294
1564.1600, -88.137
1564.1800, -88.172
1564.2000, -84.895
1564.2200,-210.000
1564.2400,-210.000
1564.2600, -81.146
1564.2800, -84.312
1564.3000,-210.000
1564.3200, -81.547
1564.3400, -83.483
1564.3600, -83.820
1564.3800, -85.272
1564.4000,-210.000
1564.4200, -84.944
1564.4400, -89.253
1564.4600, -93.022
1564.4800, -85.075
1564.5000, -84.767
1564.5200, -86.344
1564.5400,-210.000
1564.5600, -80.412
1564.5800,-210.000
1564.6000, -84.206
1564.6200, -84.301
1564.6400, -89.182
1564.6600, -88.846
1564.6800, -87.687
1564.7000, -85.583
1564.7200,-210.000
1564.7400, -84.615
1564.7600,-210.000
1564.7800,-210.000
1564.8000, -82.216
1564.8200,-210.000
1564.8400, -83.074
1564.8600,-210.000
1564.8800, -85.474
1564.9000, -89.916
1564.9200,-106.093
1564.9400, -87.192
1564.9600, -85.021
1564.9800, -93.430
1565.0000, -85.045
1565.0200, -86.692
1565.0400, -85.754
1565.0600,-210.000
1565.0800, -87.079
1565.1000, -87.777
1565.1200,-210.000
1565.1400, -86.373
1565.1600, -85.522
1565.1800,-210.000
1565.2000, -88.930
1565.2200,-210.000
1565.2400, -84.658
1565.2600, -83.931
1565.2800,-210.000
1565.3000, -86.454
1565.3200, -90.346
1565.3400,-210.000
1565.3600, -84.219
1565.3800,-210.000
1565.4000, -85.824
1565.4200, -82.973
1565.4400, -88.063
1565.4600, -89.888
1565.4800, -93.867
1565.5000, -85.768
1565.5200, -91.560
1565.5400, -85.756
1565.5600,-105.561
1565.5800,-210.000
1565.6000,-210.000
1565.6200, -86.574
1565.6400, -84.165
1565.6600, -89.282
1565.6800, -92.027
1565.7000,-210.000
1565.7200, -85.571
1565.7400, -83.177
1565.7600, -89.104
1565.7800,-210.000
1565.8000,-210.000
1565.8200, -78.913
1565.8400,-210.000
1565.8600,-210.000
1565.8800,-210.000
1565.9000,-210.000
1565.9200, -88.018
1565.9400, -82.422
1565.9600, -83.831
1565.9800,-210.000
1566.0000,-126.479
1566.0200, -81.296
1566.0400,-210.000
1566.0600,-210.000
1566.0800, -82.621
1566.1000,-210.000
1566.1200, -84.682
1566.1400, -84.300
1566.1600, -89.034
1566.1800, -86.390
1566.2000,-210.000
1566.2200,-210.000
1566.2400, -94.099
1566.2600, -85.206
1566.2800, -84.781
1566.3000, -86.019
1566.3200, -87.033
1566.3400, -84.549
1566.3600,-210.000
1566.3800, -85.705
1566.4000, -83.327
1566.4200,-210.000
1566.4400, -86.097
1566.4600, -84.910
1566.4800,-210.000
1566.5000,-210.000
1566.5200, -83.355
1566.5400, -86.800
1566.5600,-210.000
1566.5800, -87.977
1566.6000, -86.246
1566.6200,-210.000
1566.6400, -83.914
1566.6600, -92.868
1566.6800, -85.768
1566.7000, -85.472
1566.7200, -83.276
1566.7400,-210.000
1566.7600, -81.026
1566.7800, -83.189
1566.8000,-210.000
1566.8200,-210.000
1566.8400,-210.000
1566.8600, -86.746
1566.8800,-210.000
1566.9000, -81.165
1566.9200,-210.000
1566.9400, -82.822
1566.9600, -83.502
1566.9800,-210.000
1567.0000, -84.442
1567.0200,-210.000
1567.0400, -84.698
1567.0600,-210.000
1567.0800, -84.562
1567.1000, -84.638
1567.1200,-210.000
1567.1400, -80.659
1567.1600, -87.797
1567.1800, -85.286
1567.2000, -98.402
1567.2200, -94.251
1567.2400, -86.542
1567.2600, -82.856
1567.2800,-210.000
1567.3000,-210.000
1567.3200, -83.308
1567.3400, -82.868
1567.3600, -90.416
1567.3800,-210.000
1567.4000,-210.000
1567.4200, -86.779
1567.4400, -81.864
1567.4600, -92.624
1567.4800, -92.630
1567.5000, -82.542
1567.5200, -88.581
1567.5400, -89.067
1567.5600,-210.000
1567.5800, -84.437
1567.6000, -89.632
1567.6200, -92.854
1567.6400, -96.972
1567.6600, -86.166
1567.6800,-210.000
1567.7000,-210.000
1567.7200,-210.000
1567.7400, -84.747
1567.7600,-210.000
1567.7800, -87.915
1567.8000, -96.119
1567.8200,-210.000
1567.8400, -83.967
1567.8600, -89.127
1567.8800, -82.381
1567.9000, -84.522
1567.9200,-210.000
1567.9400, -83.395
1567.9600,-210.000
1567.9800, -84.946
1568.0000, -89.739
1568.0200, -83.927
1568.0400, -85.665
1568.0600, -86.807
1568.0800, -95.112
1568.1000, -83.648
1568.1200,-210.000
1568.1400,-210.000
1568.1600, -88.478
1568.1800, -86.686
1568.2000, -90.769
1568.2200, -83.483
1568.2400,-210.000
1568.2600,-210.000
1568.2800, -87.880
1568.3000, -83.051
1568.3200, -85.418
1568.3400,-210.000
1568.3600, -85.326
1568.3800, -83.568
1568.4000, -91.812
1568.4200,-210.000
1568.4400, -85.239
1568.4600,-210.000
1568.4800, -86.559
1568.5000, -90.554
1568.5200,-210.000
1568.5400, -86.258
1568.5600, -81.786
1568.5800, -83.173
1568.6000, -91.675
1568.6200,-210.000
1568.6400, -85.105
1568.6600, -87.827
1568.6800, -83.525
1568.7000, -88.857
1568.7200, -87.238
1568.7400,-210.000
1568.7600, -87.833
1568.7800, -84.202
1568.8000,-210.000
1568.8200, -83.530
1568.8400, -83.222
1568.8600,-210.000
1568.8800, -80.510
1568.9000,-210.000
1568.9200, -82.814
1568.9400, -82.595
1568.9600,-210.000
1568.9800,-210.000
1569.0000,-210.000
1569.0200, -85.419
1569.0400,-210.000
1569.0600, -84.299
1569.0800, -86.953
1569.1000, -85.182
1569.1200, -89.046
1569.1400, -86.092
1569.1600, -90.255
1569.1800, -81.836
1569.2000, -98.698
1569.2200,-210.000
1569.2400,-210.000
1569.2600, -83.453
1569.2800, -81.224
1569.3000,-210.000
1569.3200, -86.325
1569.3400,-210.000
1569.3600, -84.768
1569.3800, -81.277
1569.4000, -90.075
1569.4200, -84.609
1569.4400, -87.419
1569.4600,-210.000
1569.4800, -83.377
1569.5000,-210.000
1569.5200, -84.143
1569.5400,-210.000
1569.5600, -82.229
1569.5800,-210.000
1569.6000, -83.344
1569.6200, -84.584
1569.6400,-210.000
1569.6600,-210.000
1569.6800, -89.714
1569.7000, -86.036
1569.7200, -83.899
1569.7400,-210.000
1569.7600,-210.000
1569.7800, -81.646
1569.8000, -92.554
1569.8200, -85.096
1569.8400,-210.000
1569.8600, -86.532
1569.8800, -86.976
1569.9000, -83.595
1569.9200, -86.604
1569.9400, -86.039
1569.9600,-210.000
1569.9800,-210.000
1570.0000, -91.569
1570.0200, -85.455
1570.0400,-210.000
1570.0600,-210.000
1570.0800,-210.000
1570.1000, -85.314
1570.1200,-210.000
1570.1400, -85.728
1570.1600,-210.000
1570.1800,-210.000
1570.2000, -90.949
1570.2200, -83.872
1570.2400, -86.211
1570.2600,-210.000
1570.2800, -90.402
1570.3000,-210.000
1570.3200,-210.000
1570.3400,-210.000
1570.3600, -85.026
1570.3800, -81.874
1570.4000, -86.333
1570.4200,-210.000
1570.4400,-210.000
1570.4600, -87.589
1570.4800, -86.309
1570.5000,-210.000
1570.5200, -81.738
1570.5400,-210.000
1570.5600, -88.372
1570.5800, -80.848
1570.6000, -90.382
1570.6200, -85.411
1570.6400, -95.816
1570.6600,-100.222
1570.6800,-210.000
1570.7000, -83.746
1570.7200, -83.198
1570.7400, -86.287
1570.7600, -93.439
1570.7800, -88.927
1570.8000,-210.000
1570.8200, -85.476
1570.8400, -84.713
1570.8600, -86.521
1570.8800,-210.000
1570.9000, -95.397
1570.9200,-210.000
1570.9400, -89.586
1570.9600, -87.794
1570.9800, -82.942
1571.0000,-210.000
1571.0200, -88.195
1571.0400, -84.807
1571.0600, -84.239
1571.0800, -91.873
1571.1000,-103.006
1571.1200, -85.222
1571.1400, -85.522
1571.1600,-210.000
1571.1800, -84.225
1571.2000, -91.611
1571.2200, -93.935
1571.2400, -93.440
1571.2600, -82.797
1571.2800, -83.105
1571.3000,-210.000
1571.3200,-210.000
1571.3400, -86.384
1571.3600, -90.768
1571.3800,-210.000
1571.4000, -85.724
1571.4200, -94.723
1571.4400, -87.996
1571.4600, -85.279
1571.4800,-210.000
1571.5000, -84.381
1571.5200, -86.085
1571.5400, -89.251
1571.5600, -84.803
1571.5800, -83.944
1571.6000, -91.096
1571.6200, -92.574
1571.6400, -88.618
1571.6600, -83.978
1571.6800, -91.614
1571.7000, -95.551
1571.7200, -90.522
1571.7400,-210.000
1571.7600, -83.516
1571.7800, -86.729
1571.8000, -88.636
1571.8200,-210.000
1571.8400, -84.156
1571.8600,-210.000
1571.8800, -84.319
1571.9000, -94.090
1571.9200, -84.328
1571.9400, -91.369
1571.9600,-210.000
1571.9800, -84.599
1572.0000, -88.006
1572.0200,-210.000
1572.0400, -85.283
1572.0600, -90.174
1572.0800,-210.000
1572.1000,-210.000
1572.1200, -91.849
1572.1400, -91.124
1572.1600, -89.143
1572.1800, -83.216
1572.2000, -83.007
1572.2200,-210.000
1572.2400, -83.984
1572.2600,-210.000
1572.2800, -83.833
1572.3000, -95.538
1572.3200,-210.000
1572.3400,-210.000
1572.3600, -85.135
1572.3800,-103.005
1572.4000, -85.601
1572.4200, -81.972
1572.4400, -91.034
1572.4600, -84.565
1572.4800,-210.000
1572.5000, -81.322
1572.5200,-210.000
1572.5400, -85.247
1572.5600, -83.913
1572.5800,-210.000
1572.6000, -87.586
1572.6200, -92.489
1572.6400, -85.064
1572.6600,-210.000
1572.6800, -85.241
1572.7000, -84.632
1572.7200,-210.000
1572.7400, -85.109
1572.7600, -89.192
1572.7800, -82.414
1572.8000, -85.560
1572.8200, -95.891
1572.8400,-210.000
1572.8600, -81.684
1572.8800, -84.877
1572.9000,-210.000
1572.9200, -98.122
1572.9400, -83.270
1572.9600,-210.000
1572.9800, -85.171
1573.0000, -86.731
1573.0200,-210.000
1573.0400,-210.000
1573.0600, -87.533
1573.0800, -86.322
1573.1000, -91.246
1573.1200, -89.314
1573.1400, -83.504
1573.1600, -98.372
1573.1800, -92.274
1573.2000,-210.000
1573.2200, -86.005
1573.2400,-210.000
1573.2600, -89.192
1573.2800, -88.631
1573.3000, -84.510
1573.3200, -87.322
1573.3400,-210.000
1573.3600, -84.270
1573.3800,-210.000
1573.4000, -82.936
1573.4200, -86.397
1573.4400, -86.047
1573.4600,-210.000
1573.4800,-210.000
1573.5000, -82.238
1573.5200, -91.347
1573.5400,-210.000
1573.5600, -82.498
1573.5800, -83.700
1573.6000,-100.252
1573.6200, -84.799
1573.6400, -87.346
1573.6600, -82.866
1573.6800, -94.428
1573.7000, -82.771
1573.7200,-210.000
1573.7400, -82.823
1573.7600,-210.000
1573.7800, -84.946
1573.8000,-210.000
1573.8200, -90.023
1573.8400, -92.772
1573.8600, -82.204
1573.8800, -83.472
1573.9000, -87.213
1573.9200, -83.752
1573.9400,-101.132
1573.9600, -85.842
1573.9800, -87.768
1574.0000,-210.000
1574.0200, -83.048
1574.0400, -87.909
1574.0600, -91.806
1574.0800, -81.742
1574.1000,-210.000
1574.1200, -86.682
1574.1400,-210.000
1574.1600, -81.324
1574.1800, -87.056
1574.2000, -88.797
1574.2200,-210.000
1574.2400,-210.000
1574.2600, -84.491
1574.2800, -85.559
1574.3000, -85.318
1574.3200,-106.225
1574.3400,-210.000
1574.3600,-210.000
1574.3800, -86.372
1574.4000,-210.000
1574.4200, -93.854
1574.4400,-210.000
1574.4600, -88.523
1574.4800, -84.048
1574.5000, -90.649
1574.5200,-210.000
1574.5400, -84.994
1574.5600, -85.256
1574.5800, -83.161
1574.6000,-210.000
1574.6200,-210.000
1574.6400, -85.151
1574.6600, -84.911
1574.6800,-210.000
1574.7000, -87.684
1574.7200, -83.727
1574.7400, -84.728
1574.7600, -82.605
1574.7800, -90.174
1574.8000,-210.000
1574.8200, -85.747
1574.8400,-210.000
1574.8600, -79.905
1574.8800,-210.000
1574.9000, -94.001
1574.9200,-210.000
1574.9400,-210.000
1574.9600, -92.052
1574.9800, -82.732
1575.0000, -87.775
1575.0200,-210.000
1575.0400, -82.770
1575.0600,-210.000
1575.0800, -89.749
1575.1000, -88.879
1575.1200, -93.265
1575.1400, -83.635
1575.1600, -88.064
1575.1800,-210.000
1575.2000, -85.935
1575.2200, -83.889
1575.2400, -86.353
1575.2600,-210.000
1575.2800,-210.000
1575.3000, -88.865
1575.3200, -86.561
1575.3400, -83.673
1575.3600, -83.524
1575.3800,-210.000
1575.4000,-210.000
1575.4200, -84.333
1575.4400, -90.394
1575.4600, -82.059
1575.4800,-210.000
1575.5000, -83.393
1575.5200, -88.523
1575.5400, -88.251
1575.5600, -88.434
1575.5800,-210.000
1575.6000,-210.000
1575.6200, -82.750
1575.6400,-210.000
1575.6600, -81.734
1575.6800,-210.000
1575.7000, -91.767
1575.7200,-210.000
1575.7400, -85.243
1575.7600, -90.102
1575.7800, -85.939
1575.8000, -89.159
1575.8200, -87.938
1575.8400, -83.870
1575.8600, -82.406
1575.8800, -90.502
1575.9000, -87.351
1575.9200, -80.799
1575.9400, -87.011
1575.9600,-210.000
1575.9800, -93.446
1576.0000, -82.361
1576.0200, -83.545
1576.0400, -88.991
1576.0600, -82.757
1576.0800, -87.633
1576.1000, -84.525
1576.1200,-210.000
1576.1400, -86.595
1576.1600, -85.062
1576.1800,-210.000
1576.2000,-210.000
1576.2200,-210.000
1576.2400,-210.000
1576.2600, -90.572
1576.2800, -84.999
1576.3000, -87.710
1576.3200, -83.356
1576.3400, -85.681
1576.3600,-210.000
1576.3800, -85.624
1576.4000, -88.985
1576.4200,-210.000
1576.4400, -80.499
1576.4600, -83.323
1576.4800,-210.000
1576.5000,-210.000
1576.5200, -86.497
1576.5400, -85.878
1576.5600, -81.852
1576.5800,-210.000
1576.6000, -92.575
1576.6200, -90.143
1576.6400, -86.735
1576.6600, -84.066
1576.6800, -83.069
1576.7000,-210.000
1576.7200, -82.421
1576.7400, -89.024
1576.7600,-210.000
1576.7800, -80.013
1576.8000, -92.089
1576.8200, -88.322
1576.8400, -83.765
1576.8600,-210.000
1576.8800, -85.966
1576.9000, -90.702
1576.9200, -94.551
1576.9400, -84.942
1576.9600, -86.028
1576.9800,-210.000
1577.0000,-210.000
1577.0200, -84.087
1577.0400, -81.990
1577.0600, -83.466
1577.0800,-210.000
1577.1000,-210.000
1577.1200,-210.000
1577.1400, -82.755
1577.1600, -87.839
1577.1800,-210.000
1577.2000, -84.385
1577.2200,-210.000
1577.2400,-210.000
1577.2600, -84.354
1577.2800, -83.592
1577.3000,-210.000
1577.3200,-100.494
1577.3400, -82.878
1577.3600,-210.000
1577.3800, -91.259
1577.4000, -79.934
1577.4200, -88.579
1577.4400, -88.235
1577.4600, -93.690
1577.4800, -82.915
1577.5000,-210.000
1577.5200, -83.881
1577.5400, -87.074
1577.5600, -99.828
1577.5800, -85.879
1577.6000, -85.214
1577.6200, -84.168
1577.6400, -83.542
1577.6600,-210.000
1577.6800,-210.000
1577.7000, -86.953
1577.7200, -84.076
1577.7400,-210.000
1577.7600, -85.484
1577.7800, -84.208
1577.8000,-210.000
1577.8200, -84.653
1577.8400, -82.382
1577.8600,-210.000
1577.8800,-105.412
1577.9000, -80.026
1577.9200,-210.000
1577.9400, -83.724
1577.9600, -85.906
1577.9800,-210.000
1578.0000, -82.577
1578.0200,-210.000
1578.0400, -84.024
1578.0600, -91.005
1578.0800,-210.000
1578.1000, -86.633
1578.1200,-210.000
1578.1400, -80.669
1578.1600,-210.000
1578.1800, -85.710
1578.2000, -82.732
1578.2200,-210.000
1578.2400, -85.942
1578.2600, -86.276
1578.2800, -86.708
1578.3000, -82.622
1578.3200,-210.000
1578.3400,-210.000
1578.3600, -85.215
1578.3800, -85.373
1578.4000,-210.000
1578.4200,-210.000
1578.4400, -86.685
1578.4600, -96.289
1578.4800, -81.500
1578.5000,-210.000
1578.5200,-210.000
1578.5400, -85.096
1578.5600, -84.618
1578.5800, -90.877
1578.6000, -84.438
1578.6200, -87.096
1578.6400,-210.000
1578.6600, -82.663
1578.6800,-210.000
1578.7000, -83.180
1578.7200, -86.501
1578.7400,-210.000
1578.7600, -85.508
1578.7800, -81.260
1578.8000,-210.000
1578.8200, -82.998
1578.8400,-210.000
1578.8600,-210.000
1578.8800, -85.195
1578.9000, -86.559
1578.9200, -90.988
1578.9400, -89.033
1578.9600, -87.060
1578.9800, -86.967
1579.0000, -93.025
1579.0200,-210.000
1579.0400, -90.335
1579.0600, -86.973
1579.0800,-210.000
1579.1000, -83.233
1579.1200, -98.106
1579.1400, -84.113
1579.1600, -89.599
1579.1800, -86.702
1579.2000, -86.034
1579.2200, -89.392
1579.2400,-210.000
1579.2600,-210.000
1579.2800, -84.727
1579.3000, -87.398
1579.3200,-210.000
1579.3400,-210.000
1579.3600, -84.174
1579.3800, -84.136
1579.4000,-103.419
1579.4200,-210.000
1579.4400, -86.208
1579.4600, -81.719
1579.4800, -84.047
1579.5000, -89.563
1579.5200, -85.561
1579.5400, -86.235
1579.5600,-210.000
1579.5800, -85.444
1579.6000,-210.000
1579.6200, -86.657
1579.6400,-210.000
1579.6600, -85.040
1579.6800,-210.000
1579.7000, -81.202
1579.7200,-210.000
1579.7400, -81.080
1579.7600, -90.851
1579.7800, -82.176
1579.8000,-210.000
1579.8200, -84.543
1579.8400, -80.301
1579.8600, -95.438
1579.8800, -84.180
1579.9000,-210.000
1579.9200,-210.000
1579.9400, -83.925
1579.9600, -85.936
1579.9800, -93.464
1580.0000, -84.996
1580.0200,-210.000
1580.0400, -82.361
1580.0600, -86.555
1580.0800, -82.123
1580.1000,-210.000
1580.1200, -87.873
1580.1400, -83.011
1580.1600,-210.000
1580.1800, -84.581
1580.2000,-210.000
1580.2200, -86.619
1580.2400, -93.804
1580.2600,-210.000
1580.2800, -90.388
1580.3000, -96.462
1580.3200, -81.370
1580.3400,-210.000
1580.3600, -83.058
1580.3800, -82.108
1580.4000, -85.993
1580.4200,-210.000
1580.4400,-210.000
1580.4600, -84.928
1580.4800, -83.390
1580.5000, -88.568
1580.5200, -90.335
1580.5400, -86.118
1580.5600,-210.000
1580.5800, -87.850
1580.6000, -83.776
1580.6200, -83.082
1580.6400, -88.697
1580.6600,-210.000
1580.6800, -85.702
1580.7000,-210.000
1580.7200, -84.425
1580.7400,-210.000
1580.7600, -82.411
1580.7800,-210.000
1580.8000, -95.039
1580.8200, -88.396
1580.8400,-210.000
1580.8600,-210.000
1580.8800, -84.415
1580.9000,-210.000
1580.9200, -85.069
1580.9400,-210.000
1580.9600,-210.000
1580.9800, -81.884
1581.0000, -87.704
1581.0200, -87.614
1581.0400,-210.000
1581.0600, -91.146
1581.0800,-210.000
1581.1000, -92.814
1581.1200, -82.472
1581.1400,-210.000
1581.1600, -93.534
1581.1800,-210.000
1581.2000, -86.441
1581.2200, -83.575
1581.2400,-210.000
1581.2600, -88.484
1581.2800, -84.957
1581.3000, -88.960
1581.3200, -85.169
1581.3400, -84.564
1581.3600, -90.761
1581.3800, -85.394
1581.4000,-210.000
1581.4200, -87.273
1581.4400, -81.804
1581.4600, -88.102
1581.4800, -88.003
1581.5000, -84.508
1581.5200, -84.751
1581.5400, -86.119
1581.5600, -87.704
1581.5800, -87.726
1581.6000,-210.000
1581.6200, -89.035
1581.6400, -85.785
1581.6600, -99.221
1581.6800,-210.000
1581.7000, -88.304
1581.7200, -84.790
1581.7400, -83.886
1581.7600, -89.730
1581.7800, -89.823
1581.8000, -84.586
1581.8200, -89.054
1581.8400,-210.000
1581.8600, -83.362
1581.8800, -84.305
1581.9000, -89.245
1581.9200,-210.000
1581.9400, -81.790
1581.9600, -87.288
1581.9800, -93.149
1582.0000,-210.000
1582.0200, -83.177
1582.0400,-210.000
1582.0600, -84.656
1582.0800, -94.437
1582.1000, -85.364
1582.1200, -83.519
1582.1400, -84.127
1582.1600, -82.746
1582.1800, -83.561
1582.2000,-210.000
1582.2200, -86.673
1582.2400,-210.000
1582.2600, -85.811
1582.2800, -81.741
1582.3000,-210.000
1582.3200,-210.000
1582.3400, -86.045
1582.3600, -83.930
1582.3800, -84.221
1582.4000,-210.000
1582.4200,-210.000
1582.4400, -87.387
1582.4600, -91.018
1582.4800, -83.885
1582.5000, -84.823
1582.5200, -88.760
1582.5400,-210.000
1582.5600, -92.013
1582.5800, -84.889
1582.6000,-210.000
1582.6200, -90.751
1582.6400, -81.803
1582.6600, -83.178
1582.6800, -89.230
1582.7000, -90.229
1582.7200, -81.895
1582.7400, -86.188
1582.7600, -83.964
1582.7800,-210.000
1582.8000,-210.000
1582.8200, -84.699
1582.8400,-210.000
1582.8600, -81.300
1582.8800, -86.817
1582.9000, -82.704
1582.9200, -84.955
1582.9400, -84.745
1582.9600, -92.219
1582.9800, -83.385
1583.0000,-210.000
1583.0200, -81.700
1583.0400, -88.233
1583.0600, -85.968
1583.0800,-210.000
1583.1000, -88.856
1583.1200, -82.232
1583.1400, -91.674
1583.1600, -87.605
1583.1800, -81.582
1583.2000, -85.841
1583.2200, -90.628
1583.2400, -85.570
1583.2600, -86.388
1583.2800, -87.626
1583.3000,-210.000
1583.3200, -87.291
1583.3400, -83.218
1583.3600, -84.543
1583.3800,-210.000
1583.4000, -85.898
1583.4200, -90.810
1583.4400, -84.367
1583.4600,-210.000
1583.4800, -81.947
1583.5000, -86.918
1583.5200,-210.000
1583.5400, -84.925
1583.5600, -87.839
1583.5800, -87.477
1583.6000, -83.528
1583.6200,-210.000
1583.6400, -88.493
1583.6600, -86.155
1583.6800, -91.736
1583.7000, -86.188
1583.7200, -81.976
1583.7400, -93.400
1583.7600, -93.096
1583.7800, -82.716
1583.8000,-210.000
1583.8200, -81.880
1583.8400, -85.615
1583.8600,-210.000
1583.8800,-210.000
1583.9000, -84.819
1583.9200, -88.625
1583.9400, -93.120
1583.9600, -86.596
1583.9800,-210.000
1584.0000, -82.584
1584.0200, -85.963
1584.0400, -82.333
1584.0600, -86.201
1584.0800,-210.000
1584.1000, -81.651
1584.1200, -83.619
1584.1400, -90.818
1584.1600, -89.416
1584.1800, -97.673
1584.2000, -86.345
1584.2200, -84.085
1584.2400,-210.000
1584.2600, -81.404
1584.2800, -94.727
1584.3000, -84.812
1584.3200, -93.634
1584.3400,-210.000
1584.3600, -87.723
1584.3800, -83.121
1584.4000, -89.705
1584.4200, -84.095
1584.4400, -83.399
1584.4600, -84.251
1584.4800, -91.966
1584.5000, -96.446
1584.5200, -81.877
1584.5400, -83.056
1584.5600, -83.768
1584.5800, -86.365
1584.6000, -90.622
1584.6200, -84.457
1584.6400, -96.020
1584.6600,-210.000
1584.6800, -82.460
1584.7000,-210.000
1584.7200, -86.536
1584.7400, -93.574
1584.7600, -84.139
1584.7800, -86.364
1584.8000,-210.000
1584.8200, -90.378
1584.8400, -85.471
1584.8600, -87.697
1584.8800, -85.089
1584.9000, -87.226
1584.9200,-210.000
1584.9400, -85.748
1584.9600, -86.494
1584.9800, -87.948
1585.0000, -85.778
1585.0200,-210.000
1585.0400,-210.000
1585.0600, -82.995
1585.0800, -87.548
1585.1000, -90.300
1585.1200, -91.353
1585.1400, -88.004
1585.1600, -81.609
1585.1800,-210.000
1585.2000, -86.221
1585.2200, -87.591
1585.2400, -82.623
1585.2600, -87.391
1585.2800,-210.000
1585.3000, -92.743
1585.3200,-210.000
1585.3400, -84.603
1585.3600,-210.000
1585.3800, -91.077
1585.4000, -84.989
1585.4200,-210.000
1585.4400, -91.841
1585.4600, -82.211
1585.4800, -89.670
1585.5000, -85.229
1585.5200,-210.000
1585.5400,-210.000
1585.5600, -88.579
1585.5800, -82.055
1585.6000,-210.000
1585.6200, -84.942
1585.6400, -85.255
1585.6600, -87.683
1585.6800, -92.693
1585.7000, -87.445
1585.7200,-210.000
1585.7400,-102.313
1585.7600,-210.000
1585.7800,-103.626
1585.8000, -96.533
1585.8200, -84.409
1585.8400, -84.861
1585.8600, -83.373
1585.8800, -85.080
1585.9000, -89.480
1585.9200, -86.272
1585.9400, -91.507
1585.9600,-210.000
1585.9800, -91.260
1586.0000, -82.340
1586.0200,-210.000
1586.0400,-210.000
1586.0600,-210.000
1586.0800, -84.131
1586.1000,-210.000
1586.1200,-210.000
1586.1400, -82.252
1586.1600,-210.000
1586.1800,-210.000
1586.2000, -85.003
1586.2200, -80.850
1586.2400, -87.256
1586.2600,-210.000
1586.2800, -90.969
1586.3000,-210.000
1586.3200, -82.802
1586.3400,-210.000
1586.3600, -87.807
1586.3800, -85.516
1586.4000,-210.000
1586.4200, -85.814
1586.4400, -84.193
1586.4600, -90.519
1586.4800, -88.853
1586.5000, -84.733
1586.5200, -83.090
1586.5400,-210.000
1586.5600, -84.546
1586.5800, -85.284
1586.6000, -82.653
1586.6200,-210.000
1586.6400, -82.056
1586.6600, -84.811
1586.6800, -90.507
1586.7000, -86.318
1586.7200, -84.629
1586.7400, -84.244
1586.7600,-210.000
1586.7800,-210.000
1586.8000,-210.000
1586.8200,-210.000
1586.8400, -84.356
1586.8600, -88.871
1586.8800,-210.000
1586.9000, -83.498
1586.9200, -85.882
1586.9400,-210.000
1586.9600, -87.229
1586.9800, -84.993
1587.0000, -93.411
1587.0200,-210.000
1587.0400,-210.000
1587.0600,-210.000
1587.0800, -90.659
1587.1000, -89.799
1587.1200, -83.859
1587.1400, -97.858
1587.1600, -86.910
1587.1800,-210.000
1587.2000, -84.494
1587.2200,-210.000
1587.2400, -81.305
1587.2600, -88.442
1587.2800,-210.000
1587.3000,-100.722
1587.3200, -91.308
1587.3400, -82.800
1587.3600,-210.000
1587.3800, -92.039
1587.4000, -84.808
1587.4200,-210.000
1587.4400, -86.113
1587.4600,-210.000
1587.4800, -86.097
1587.5000, -85.933
1587.5200,-210.000
1587.5400,-210.000
1587.5600, -87.147
1587.5800, -86.439
1587.6000,-210.000
1587.6200, -88.770
1587.6400, -87.810
1587.6600, -83.758
1587.6800, -83.778
1587.7000,-210.000
1587.7200, -84.819
1587.7400, -80.702
1587.7600,-210.000
1587.7800,-210.000
1587.8000, -83.859
1587.8200, -85.488
1587.8400,-210.000
1587.8600,-210.000
1587.8800, -87.351
1587.9000, -81.787
1587.9200, -85.492
1587.9400,-112.135
1587.9600,-210.000
1587.9800,-210.000
1588.0000, -83.369
1588.0200, -82.911
1588.0400,-210.000
1588.0600, -82.676
1588.0800,-210.000
1588.1000, -84.644
1588.1200, -83.528
1588.1400, -85.474
1588.1600,-210.000
1588.1800, -86.626
1588.2000, -86.169
1588.2200,-210.000
1588.2400, -83.311
1588.2600, -87.866
1588.2800,-210.000
1588.3000,-210.000
1588.3200, -80.694
1588.3400, -93.422
1588.3600, -87.492
1588.3800,-210.000
1588.4000, -84.486
1588.4200, -86.859
1588.4400, -85.592
1588.4600, -81.811
1588.4800,-210.000
1588.5000, -86.733
1588.5200, -84.291
1588.5400, -83.424
1588.5600, -85.354
1588.5800,-210.000
1588.6000,-210.000
1588.6200, -84.215
1588.6400,-210.000
1588.6600,-210.000
1588.6800, -83.555
1588.7000,-210.000
1588.7200,-210.000
1588.7400,-210.000
1588.7600,-210.000
1588.7800, -83.460
1588.8000,-210.000
1588.8200, -84.400
1588.8400, -91.094
1588.8600, -81.134
1588.8800, -83.896
1588.9000,-210.000
1588.9200, -85.486
1588.9400, -83.349
1588.9600, -82.741
1588.9800,-210.000
1589.0000, -83.972
1589.0200, -85.095
1589.0400, -86.526
1589.0600, -87.397
1589.0800, -90.050
1589.1000, -84.441
1589.1200,-210.000
1589.1400,-210.000
1589.1600, -91.261
1589.1800,-210.000
1589.2000, -85.335
1589.2200, -87.593
1589.2400, -84.326
1589.2600, -88.044
1589.2800, -83.811
1589.3000, -89.021
1589.3200,-210.000
1589.3400,-210.000
1589.3600, -84.259
1589.3800, -89.292
1589.4000, -95.648
1589.4200, -82.720
1589.4400,-210.000
1589.4600, -90.344
1589.4800, -81.220
1589.5000,-210.000
1589.5200, -82.443
1589.5400, -88.864
1589.5600, -84.457
1589.5800, -99.330
1589.6000, -85.756
1589.6200,-210.000
1589.6400, -80.652
1589.6600, -91.520
1589.6800, -86.508
1589.7000, -96.401
1589.7200,-210.000
1589.7400,-210.000
1589.7600, -79.906
1589.7800, -96.488
1589.8000, -82.916
1589.8200,-210.000
1589.8400, -83.766
1589.8600,-210.000
1589.8800, -83.113
1589.9000, -89.120
1589.9200,-210.000
1589.9400, -84.581
1589.9600,-210.000
1589.9800, -98.977
1590.0000, -82.664
1590.0200, -83.520
1590.0400,-210.000
1590.0600,-210.000
1590.0800, -79.726
1590.1000,-210.000
1590.1200,-210.000
1590.1400, -87.952
1590.1600,-210.000
1590.1800, -82.026
1590.2000,-210.000
1590.2200, -85.616
1590.2400, -96.247
1590.2600, -83.340
1590.2800, -86.058
1590.3000,-103.407
1590.3200, -83.004
1590.3400,-210.000
1590.3600, -85.190
1590.3800, -89.945
1590.4000,-210.000
1590.4200, -90.671
1590.4400, -85.971
1590.4600,-210.000
1590.4800, -88.811
1590.5000, -83.857
1590.5200, -85.276
1590.5400,-210.000
1590.5600, -89.941
1590.5800, -94.415
1590.6000,-210.000
1590.6200, -81.843
1590.6400,-210.000
1590.6600, -81.942
1590.6800, -87.451
1590.7000,-210.000
1590.7200,-210.000
1590.7400, -82.578
1590.7600,-210.000
1590.7800, -82.618
1590.8000, -84.543
1590.8200, -88.459
1590.8400, -87.936
1590.8600,-210.000
1590.8800, -90.046
1590.9000, -83.058
1590.9200, -83.416
1590.9400, -87.053
1590.9600, -85.128
1590.9800, -86.142
1591.0000, -86.510
1591.0200,-210.000
1591.0400,-210.000
1591.0600, -81.056
1591.0800, -84.415
1591.1000, -88.494
1591.1200, -87.095
1591.1400, -82.651
1591.1600, -85.823
1591.1800, -88.193
1591.2000, -86.169
1591.2200, -83.560
1591.2400,-210.000
1591.2600, -85.725
1591.2800, -82.764
1591.3000,-210.000
1591.3200, -86.130
1591.3400, -81.176
1591.3600,-210.000
1591.3800, -83.583
1591.4000, -85.683
1591.4200, -87.441
1591.4400, -82.841
1591.4600, -90.882
1591.4800, -88.252
1591.5000,-210.000
1591.5200,-210.000
1591.5400, -84.463
1591.5600,-210.000
1591.5800,-210.000
1591.6000,-210.000
1591.6200, -83.936
1591.6400, -86.858
1591.6600,-210.000
1591.6800, -85.706
1591.7000,-210.000
1591.7200,-210.000
1591.7400, -81.424
1591.7600, -83.110
1591.7800,-210.000
1591.8000,-210.000
1591.8200, -79.960
1591.8400, -82.956
1591.8600,-210.000
1591.8800,-210.000
1591.9000, -83.053
1591.9200, -85.802
1591.9400, -88.083
1591.9600,-210.000
1591.9800, -95.630
1592.0000, -81.562
1592.0200, -87.370
1592.0400, -90.565
1592.0600, -82.001
1592.0800, -90.859
1592.1000, -84.914
1592.1200, -99.372
1592.1400, -85.749
1592.1600, -85.387
1592.1800, -83.998
1592.2000, -96.350
1592.2200, -90.213
1592.2400, -92.916
1592.2600, -86.674
1592.2800, -85.964
1592.3000, -88.311
1592.3200,-210.000
1592.3400,-210.000
1592.3600,-210.000
1592.3800, -85.887
1592.4000, -81.302
1592.4200, -89.554
1592.4400, -84.108
1592.4600, -85.318
1592.4800,-210.000
1592.5000,-210.000
1592.5200, -82.458
1592.5400, -84.627
1592.5600,-210.000
1592.5800, -81.025
1592.6000,-210.000
1592.6200, -85.849
1592.6400, -82.699
1592.6600, -91.259
1592.6800,-210.000
1592.7000, -81.398
1592.7200,-210.000
1592.7400, -84.066
1592.7600, -87.897
1592.7800, -81.123
1592.8000,-210.000
1592.8200, -93.416
1592.8400, -84.846
1592.8600, -86.558
1592.8800, -82.933
1592.9000, -97.762
1592.9200, -81.225
1592.9400,-210.000
1592.9600, -84.650
1592.9800, -85.405
1593.0000, -84.470
1593.0200,-210.000
1593.0400, -83.750
1593.0600, -87.134
1593.0800, -84.844
1593.1000, -86.645
1593.1200, -81.819
1593.1400,-210.000
1593.1600, -85.361
1593.1800, -92.418
1593.2000,-210.000
1593.2200, -86.420
1593.2400, -86.700
1593.2600, -99.037
1593.2800, -79.876
1593.3000, -86.828
1593.3200, -85.786
1593.3400,-210.000
1593.3600, -85.829
1593.3800, -84.461
1593.4000, -84.673
1593.4200, -87.555
1593.4400, -83.612
1593.4600,-210.000
1593.4800,-210.000
1593.5000,-210.000
1593.5200,-210.000
1593.5400, -80.680
1593.5600, -94.966
1593.5800, -85.791
1593.6000, -84.888
1593.6200, -82.888
1593.6400,-210.000
1593.6600,-210.000
1593.6800, -82.804
1593.7000, -86.616
1593.7200, -83.873
1593.7400,-210.000
1593.7600, -85.482
1593.7800,-210.000
1593.8000, -88.797
1593.8200, -81.646
1593.8400,-210.000
1593.8600, -79.797
1593.8800, -85.390
1593.9000, -86.148
1593.9200,-210.000
1593.9400, -85.345
1593.9600,-210.000
1593.9800, -82.939
1594.0000, -92.926
1594.0200, -84.999
1594.0400, -82.575
1594.0600,-210.000
1594.0800, -88.952
1594.1000, -83.151
1594.1200, -84.771
1594.1400, -84.551
1594.1600,-210.000
1594.1800, -87.069
1594.2000, -85.237
1594.2200, -83.726
1594.2400, -85.169
1594.2600,-210.000
1594.2800,-210.000
1594.3000, -81.237
1594.3200, -96.993
1594.3400,-210.000
1594.3600,-210.000
1594.3800, -81.125
1594.4000, -83.200
1594.4200,-210.000
1594.4400, -82.734
1594.4600, -82.090
1594.4800,-210.000
1594.5000, -85.078
1594.5200,-210.000
1594.5400, -83.624
1594.5600,-210.000
1594.5800, -84.827
1594.6000,-210.000
1594.6200, -81.369
1594.6400,-210.000
1594.6600,-210.000
1594.6800, -83.896
1594.7000, -80.331
1594.7200, -87.041
1594.7400, -95.867
1594.7600, -82.224
1594.7800, -88.290
1594.8000, -87.551
1594.8200,-210.000
1594.8400, -84.500
1594.8600, -82.759
1594.8800,-210.000
1594.9000,-210.000
1594.9200,-210.000
1594.9400, -85.220
1594.9600, -96.563
1594.9800, -90.709
1595.0000, -82.249
1595.0200,-210.000
1595.0400, -83.983
1595.0600, -85.608
1595.0800, -85.529
1595.1000, -92.054
1595.1200, -85.542
1595.1400, -84.279
1595.1600, -99.517
1595.1800,-210.000
1595.2000, -81.526
1595.2200, -92.144
1595.2400,-210.000
1595.2600, -89.077
1595.2800, -83.174
1595.3000,-210.000
1595.3200, -82.091
1595.3400, -84.239
1595.3600, -84.384
1595.3800, -84.853
1595.4000,-210.000
1595.4200, -94.088
1595.4400, -97.187
1595.4600,-210.000
1595.4800,-210.000
1595.5000, -82.244
1595.5200,-210.000
1595.5400, -89.130
1595.5600,-210.000
1595.5800, -80.954
1595.6000, -86.597
1595.6200, -89.103
1595.6400,-210.000
1595.6600,-109.043
1595.6800, -79.703
1595.7000, -85.739
1595.7200, -89.501
1595.7400, -86.744
1595.7600,-210.000
1595.7800,-210.000
1595.8000,-210.000
1595.8200, -85.938
1595.8400, -84.776
1595.8600,-210.000
1595.8800, -82.999
1595.9000,-210.000
1595.9200,-210.000
1595.9400, -85.164
1595.9600, -83.841
1595.9800, -86.415
1596.0000,-210.000
1596.0200, -88.586
1596.0400,-210.000
1596.0600, -79.919
1596.0800,-210.000
1596.1000, -83.764
1596.1200, -84.868
1596.1400,-210.000
1596.1600, -88.612
1596.1800, -83.246
1596.2000, -85.743
1596.2200, -83.143
1596.2400, -90.739
1596.2600, -89.415
1596.2800,-210.000
1596.3000, -83.456
1596.3200,-210.000
1596.3400, -87.182
1596.3600, -85.142
1596.3800, -85.803
1596.4000,-210.000
1596.4200, -82.377
1596.4400, -82.672
1596.4600, -87.492
1596.4800, -91.272
1596.5000,-210.000
1596.5200, -83.757
1596.5400,-100.556
1596.5600,-210.000
1596.5800, -85.695
1596.6000, -83.889
1596.6200,-210.000
1596.6400,-210.000
1596.6600, -92.903
1596.6800, -81.269
1596.7000,-210.000
1596.7200, -81.132
1596.7400, -84.586
1596.7600,-210.000
1596.7800, -83.877
1596.8000, -85.756
1596.8200, -91.703
1596.8400, -89.526
1596.8600, -87.510
1596.8800,-210.000
1596.9000, -83.157
1596.9200,-210.000
1596.9400, -80.344
1596.9600, -81.975
1596.9800, -83.092
1597.0000, -91.942
1597.0200, -85.140
1597.0400,-210.000
1597.0600, -88.204
1597.0800, -82.864
1597.1000, -84.107
1597.1200, -90.527
1597.1400,-210.000
1597.1600, -80.945
1597.1800, -87.554
1597.2000, -87.394
1597.2200,-210.000
1597.2400,-210.000
1597.2600, -80.449
1597.2800, -84.190
1597.3000, -82.666
1597.3200, -84.796
1597.3400,-210.000
1597.3600, -81.214
1597.3800, -84.068
1597.4000,-210.000
1597.4200,-210.000
1597.4400, -81.885
1597.4600, -95.919
1597.4800, -95.952
1597.5000, -88.624
1597.5200,-210.000
1597.5400, -81.772
1597.5600, -85.056
1597.5800,-210.000
1597.6000, -91.352
1597.6200, -81.474
1597.6400,-210.000
1597.6600, -92.442
1597.6800,-210.000
1597.7000,-210.000
1597.7200, -79.546
1597.7400,-210.000
1597.7600, -92.424
1597.7800, -86.619
1597.8000, -96.229
1597.8200, -83.008
1597.8400, -86.756
1597.8600, -86.901
1597.8800,-210.000
1597.9000, -80.120
1597.9200, -87.447
1597.9400, -85.337
1597.9600, -81.405
1597.9800,-210.000
1598.0000, -86.570
1598.0200, -87.470
1598.0400,-210.000
1598.0600,-210.000
1598.0800, -90.330
1598.1000, -87.256
1598.1200,-210.000
1598.1400,-210.000
1598.1600, -88.735
1598.1800,-210.000
1598.2000, -81.136
1598.2200,-210.000
1598.2400, -85.336
1598.2600, -90.267
1598.2800, -87.673
1598.3000,-210.000
1598.3200, -83.564
1598.3400, -82.354
1598.3600,-210.000
1598.3800,-210.000
1598.4000, -93.036
1598.4200, -83.498
1598.4400, -97.033
1598.4600,-210.000
1598.4800, -93.574
1598.5000, -89.324
1598.5200,-210.000
1598.5400, -85.258
1598.5600,-210.000
1598.5800, -84.402
1598.6000, -83.375
1598.6200,-210.000
1598.6400,-210.000
1598.6600, -84.369
1598.6800, -84.479
1598.7000, -82.588
1598.7200, -92.800
1598.7400, -88.670
1598.7600, -97.770
1598.7800, -82.593
1598.8000, -86.103
1598.8200,-210.000
1598.8400, -82.751
1598.8600,-210.000
1598.8800,-210.000
1598.9000, -83.247
1598.9200,-210.000
1598.9400, -84.884
1598.9600, -80.530
1598.9800,-210.000
1599.0000, -80.263
1599.0200,-210.000
1599.0400, -82.612
1599.0600, -85.297
1599.0800,-210.000
1599.1000, -84.350
1599.1200, -83.536
1599.1400,-210.000
1599.1600, -87.807
1599.1800,-210.000
1599.2000, -85.899
1599.2200,-210.000
1599.2400, -86.418
1599.2600, -86.604
1599.2800,-210.000
1599.3000,-210.000
1599.3200, -92.084
1599.3400, -89.441
1599.3600,-210.000
1599.3800,-210.000
1599.4000, -80.272
1599.4200,-210.000
1599.4400, -83.249
1599.4600,-210.000
1599.4800,-210.000
1599.5000, -83.403
1599.5200, -90.092
1599.5400, -91.958
1599.5600, -86.095
1599.5800, -98.127
1599.6000,-103.209
1599.6200,-210.000
1599.6400, -83.443
1599.6600, -85.060
1599.6800, -89.878
1599.7000, -86.291
1599.7200, -88.727
1599.7400, -82.403
1599.7600, -81.387
1599.7800, -85.517
1599.8000,-210.000
1599.8200, -85.050
1599.8400,-210.000
1599.8600, -84.859
1599.8800, -98.856
1599.9000, -81.749
1599.9200, -87.063
1599.9400, -83.968
1599.9600, -81.805
1599.9800, -82.670
1600.0000, -87.022
